LabVIEW Measurement	
Writer_Version	2
Reader_Version	2
Separator	Tab
Decimal_Separator	.
Multi_Headings	Yes
X_Columns	One
Time_Pref	Absolute
Operator	labuser
Date	2023/05/22
Time	14:45:47.4232686999997809888
***End_of_Header***	
	
Channels	1	
Samples	10000	
Date	2023/05/22	
Time	14:51:04.3597006999998139039	
Y_Unit_Label	Volts	
X_Dimension	Time	
X0	0.0000000000000000E+0	
Delta_X	0.000500	
***End_of_Header***		
X_Value	Voltage	Comment
0.000000	1.795957
0.000500	1.795639
0.001000	1.795320
0.001500	1.795002
0.002000	1.796595
0.002500	1.796595
0.003000	1.796276
0.003500	1.794683
0.004000	1.795002
0.004500	1.793728
0.005000	1.794046
0.005500	1.795320
0.006000	1.796276
0.006500	1.796595
0.007000	1.795957
0.007500	1.796276
0.008000	1.795639
0.008500	1.795002
0.009000	1.795320
0.009500	1.795957
0.010000	1.797550
0.010500	1.797550
0.011000	1.796913
0.011500	1.795639
0.012000	1.795002
0.012500	1.794365
0.013000	1.794365
0.013500	1.794683
0.014000	1.795320
0.014500	1.796276
0.015000	1.795639
0.015500	1.794365
0.016000	1.793091
0.016500	1.793409
0.017000	1.793091
0.017500	1.794046
0.018000	1.795639
0.018500	1.796595
0.019000	1.796595
0.019500	1.795639
0.020000	1.794683
0.020500	1.794365
0.021000	1.796276
0.021500	1.797232
0.022000	1.797232
0.022500	1.797550
0.023000	1.797232
0.023500	1.795639
0.024000	1.795639
0.024500	1.795320
0.025000	1.794683
0.025500	1.796276
0.026000	1.796595
0.026500	1.796276
0.027000	1.796595
0.027500	1.795320
0.028000	1.793409
0.028500	1.793409
0.029000	1.795002
0.029500	1.795002
0.030000	1.795957
0.030500	1.795957
0.031000	1.796595
0.031500	1.796595
0.032000	1.795957
0.032500	1.795639
0.033000	1.796276
0.033500	1.796913
0.034000	1.798824
0.034500	1.798824
0.035000	1.797550
0.035500	1.796595
0.036000	1.795639
0.036500	1.795320
0.037000	1.794046
0.037500	1.795957
0.038000	1.796595
0.038500	1.797232
0.039000	1.796276
0.039500	1.795002
0.040000	1.793409
0.040500	1.794365
0.041000	1.794683
0.041500	1.795639
0.042000	1.795957
0.042500	1.796595
0.043000	1.796276
0.043500	1.796913
0.044000	1.795639
0.044500	1.795320
0.045000	1.795320
0.045500	1.797869
0.046000	1.798824
0.046500	1.797869
0.047000	1.796913
0.047500	1.796276
0.048000	1.795639
0.048500	1.794365
0.049000	1.794683
0.049500	1.795957
0.050000	1.795957
0.050500	1.795957
0.051000	1.795002
0.051500	1.794365
0.052000	1.793409
0.052500	1.793409
0.053000	1.794365
0.053500	1.795320
0.054000	1.795957
0.054500	1.796595
0.055000	1.795639
0.055500	1.796276
0.056000	1.795639
0.056500	1.795639
0.057000	1.795957
0.057500	1.797232
0.058000	1.798506
0.058500	1.797869
0.059000	1.796595
0.059500	1.795320
0.060000	1.795957
0.060500	1.795002
0.061000	1.795639
0.061500	1.796276
0.062000	1.796913
0.062500	1.796913
0.063000	1.795639
0.063500	1.794365
0.064000	1.793728
0.064500	1.795320
0.065000	1.796276
0.065500	1.796913
0.066000	1.796595
0.066500	1.797232
0.067000	1.796913
0.067500	1.796595
0.068000	1.795957
0.068500	1.796595
0.069000	1.797550
0.069500	1.799780
0.070000	1.798824
0.070500	1.797550
0.071000	1.797232
0.071500	1.795957
0.072000	1.795639
0.072500	1.795002
0.073000	1.795639
0.073500	1.797232
0.074000	1.796913
0.074500	1.795639
0.075000	1.795002
0.075500	1.793728
0.076000	1.793409
0.076500	1.796595
0.077000	1.795002
0.077500	1.796595
0.078000	1.796276
0.078500	1.797232
0.079000	1.796595
0.079500	1.795320
0.080000	1.796276
0.080500	1.796595
0.081000	1.797869
0.081500	1.799461
0.082000	1.798824
0.082500	1.796595
0.083000	1.795957
0.083500	1.795639
0.084000	1.796276
0.084500	1.795320
0.085000	1.796276
0.085500	1.796595
0.086000	1.796595
0.086500	1.795320
0.087000	1.794046
0.087500	1.793728
0.088000	1.794365
0.088500	1.795002
0.089000	1.796595
0.089500	1.796595
0.090000	1.797232
0.090500	1.796595
0.091000	1.796913
0.091500	1.796276
0.092000	1.796595
0.092500	1.796595
0.093000	1.797869
0.093500	1.798824
0.094000	1.797232
0.094500	1.795639
0.095000	1.795002
0.095500	1.795639
0.096000	1.794046
0.096500	1.794683
0.097000	1.795957
0.097500	1.797232
0.098000	1.796276
0.098500	1.795002
0.099000	1.793409
0.099500	1.793409
0.100000	1.794683
0.100500	1.795320
0.101000	1.796276
0.101500	1.796276
0.102000	1.796595
0.102500	1.796595
0.103000	1.794365
0.103500	1.795639
0.104000	1.796276
0.104500	1.796913
0.105000	1.798506
0.105500	1.797869
0.106000	1.796913
0.106500	1.795957
0.107000	1.794683
0.107500	1.794683
0.108000	1.795002
0.108500	1.795639
0.109000	1.796276
0.109500	1.795957
0.110000	1.795957
0.110500	1.795002
0.111000	1.793091
0.111500	1.793728
0.112000	1.794365
0.112500	1.795639
0.113000	1.795639
0.113500	1.796276
0.114000	1.796595
0.114500	1.796276
0.115000	1.796276
0.115500	1.795002
0.116000	1.796276
0.116500	1.797232
0.117000	1.799143
0.117500	1.798187
0.118000	1.796595
0.118500	1.795639
0.119000	1.795320
0.119500	1.794683
0.120000	1.795002
0.120500	1.795639
0.121000	1.796276
0.121500	1.795320
0.122000	1.795320
0.122500	1.793728
0.123000	1.793091
0.123500	1.795002
0.124000	1.795320
0.124500	1.796595
0.125000	1.796595
0.125500	1.796913
0.126000	1.796595
0.126500	1.795957
0.127000	1.795002
0.127500	1.795320
0.128000	1.797232
0.128500	1.797869
0.129000	1.797869
0.129500	1.796595
0.130000	1.795639
0.130500	1.795320
0.131000	1.795002
0.131500	1.794683
0.132000	1.795639
0.132500	1.796595
0.133000	1.796913
0.133500	1.795639
0.134000	1.794683
0.134500	1.794046
0.135000	1.794365
0.135500	1.795320
0.136000	1.796276
0.136500	1.796913
0.137000	1.796595
0.137500	1.796595
0.138000	1.796913
0.138500	1.795957
0.139000	1.795639
0.139500	1.796913
0.140000	1.798824
0.140500	1.798824
0.141000	1.798506
0.141500	1.797550
0.142000	1.795957
0.142500	1.795639
0.143000	1.795320
0.143500	1.794683
0.144000	1.795002
0.144500	1.796276
0.145000	1.796276
0.145500	1.795320
0.146000	1.793728
0.146500	1.794365
0.147000	1.793409
0.147500	1.795957
0.148000	1.796276
0.148500	1.796276
0.149000	1.796913
0.149500	1.796595
0.150000	1.795639
0.150500	1.795320
0.151000	1.795639
0.151500	1.796913
0.152000	1.798506
0.152500	1.797869
0.153000	1.798824
0.153500	1.796595
0.154000	1.796276
0.154500	1.795002
0.155000	1.795639
0.155500	1.795320
0.156000	1.796276
0.156500	1.795957
0.157000	1.795957
0.157500	1.795002
0.158000	1.794365
0.158500	1.794365
0.159000	1.793728
0.159500	1.794365
0.160000	1.795320
0.160500	1.796595
0.161000	1.796595
0.161500	1.796276
0.162000	1.795957
0.162500	1.795639
0.163000	1.795639
0.163500	1.796913
0.164000	1.797869
0.164500	1.798506
0.165000	1.798506
0.165500	1.796913
0.166000	1.796276
0.166500	1.795957
0.167000	1.795002
0.167500	1.795320
0.168000	1.795320
0.168500	1.795957
0.169000	1.796595
0.169500	1.795639
0.170000	1.794046
0.170500	1.793728
0.171000	1.793728
0.171500	1.794683
0.172000	1.795639
0.172500	1.795639
0.173000	1.796913
0.173500	1.797550
0.174000	1.795957
0.174500	1.795957
0.175000	1.795320
0.175500	1.796595
0.176000	1.796913
0.176500	1.798187
0.177000	1.801691
0.177500	1.797550
0.178000	1.795957
0.178500	1.795639
0.179000	1.794683
0.179500	1.794683
0.180000	1.796276
0.180500	1.796595
0.181000	1.796595
0.181500	1.795639
0.182000	1.794683
0.182500	1.793728
0.183000	1.794046
0.183500	1.795639
0.184000	1.796276
0.184500	1.796276
0.185000	1.796595
0.185500	1.796595
0.186000	1.796276
0.186500	1.795639
0.187000	1.795957
0.187500	1.796595
0.188000	1.797869
0.188500	1.798506
0.189000	1.797869
0.189500	1.796276
0.190000	1.795957
0.190500	1.796276
0.191000	1.795639
0.191500	1.795639
0.192000	1.796913
0.192500	1.795957
0.193000	1.796595
0.193500	1.795320
0.194000	1.793728
0.194500	1.793728
0.195000	1.794683
0.195500	1.794683
0.196000	1.795957
0.196500	1.796595
0.197000	1.796595
0.197500	1.797232
0.198000	1.795639
0.198500	1.795002
0.199000	1.795002
0.199500	1.795957
0.200000	1.797550
0.200500	1.798187
0.201000	1.798187
0.201500	1.796595
0.202000	1.795639
0.202500	1.796276
0.203000	1.795002
0.203500	1.795957
0.204000	1.795957
0.204500	1.795639
0.205000	1.796595
0.205500	1.796595
0.206000	1.794365
0.206500	1.793091
0.207000	1.794365
0.207500	1.795320
0.208000	1.796276
0.208500	1.796913
0.209000	1.796595
0.209500	1.797232
0.210000	1.796913
0.210500	1.796276
0.211000	1.796595
0.211500	1.796595
0.212000	1.797550
0.212500	1.798824
0.213000	1.799143
0.213500	1.797232
0.214000	1.796595
0.214500	1.795320
0.215000	1.795957
0.215500	1.795320
0.216000	1.795957
0.216500	1.796913
0.217000	1.802965
0.217500	1.795957
0.218000	1.795002
0.218500	1.794046
0.219000	1.794365
0.219500	1.795639
0.220000	1.795639
0.220500	1.796276
0.221000	1.796913
0.221500	1.796913
0.222000	1.796913
0.222500	1.796595
0.223000	1.796276
0.223500	1.796913
0.224000	1.797550
0.224500	1.798187
0.225000	1.799143
0.225500	1.797869
0.226000	1.796913
0.226500	1.796913
0.227000	1.796276
0.227500	1.795957
0.228000	1.795639
0.228500	1.796595
0.229000	1.796913
0.229500	1.796595
0.230000	1.795320
0.230500	1.794683
0.231000	1.793728
0.231500	1.794683
0.232000	1.795320
0.232500	1.795957
0.233000	1.796276
0.233500	1.797550
0.234000	1.796913
0.234500	1.795639
0.235000	1.796276
0.235500	1.795957
0.236000	1.797232
0.236500	1.797869
0.237000	1.797550
0.237500	1.798187
0.238000	1.796913
0.238500	1.796595
0.239000	1.795320
0.239500	1.795639
0.240000	1.795002
0.240500	1.795639
0.241000	1.795957
0.241500	1.795957
0.242000	1.795320
0.242500	1.794683
0.243000	1.793091
0.243500	1.793728
0.244000	1.795639
0.244500	1.795320
0.245000	1.796595
0.245500	1.796276
0.246000	1.796595
0.246500	1.796595
0.247000	1.795320
0.247500	1.795320
0.248000	1.796276
0.248500	1.798187
0.249000	1.797869
0.249500	1.796913
0.250000	1.795639
0.250500	1.795639
0.251000	1.795002
0.251500	1.794365
0.252000	1.795002
0.252500	1.794683
0.253000	1.795957
0.253500	1.795639
0.254000	1.795002
0.254500	1.793091
0.255000	1.791816
0.255500	1.793091
0.256000	1.793728
0.256500	1.795320
0.257000	1.795639
0.257500	1.795320
0.258000	1.796595
0.258500	1.795957
0.259000	1.795320
0.259500	1.794683
0.260000	1.795639
0.260500	1.796276
0.261000	1.797550
0.261500	1.797550
0.262000	1.796276
0.262500	1.795320
0.263000	1.795320
0.263500	1.794683
0.264000	1.794365
0.264500	1.794683
0.265000	1.795002
0.265500	1.795639
0.266000	1.795002
0.266500	1.794683
0.267000	1.793091
0.267500	1.792772
0.268000	1.793728
0.268500	1.795320
0.269000	1.795320
0.269500	1.796595
0.270000	1.795957
0.270500	1.796913
0.271000	1.795320
0.271500	1.795320
0.272000	1.795002
0.272500	1.796276
0.273000	1.798187
0.273500	1.797550
0.274000	1.797232
0.274500	1.795957
0.275000	1.795639
0.275500	1.795002
0.276000	1.794365
0.276500	1.795639
0.277000	1.795320
0.277500	1.795957
0.278000	1.795957
0.278500	1.794683
0.279000	1.793728
0.279500	1.793091
0.280000	1.793728
0.280500	1.794365
0.281000	1.795320
0.281500	1.796913
0.282000	1.796595
0.282500	1.796595
0.283000	1.796595
0.283500	1.795639
0.284000	1.795639
0.284500	1.796595
0.285000	1.798187
0.285500	1.798187
0.286000	1.797232
0.286500	1.796913
0.287000	1.795957
0.287500	1.795320
0.288000	1.794683
0.288500	1.794683
0.289000	1.796276
0.289500	1.796913
0.290000	1.795320
0.290500	1.795320
0.291000	1.795002
0.291500	1.793728
0.292000	1.793728
0.292500	1.795639
0.293000	1.796913
0.293500	1.797232
0.294000	1.796595
0.294500	1.796913
0.295000	1.795957
0.295500	1.795320
0.296000	1.794683
0.296500	1.796913
0.297000	1.797232
0.297500	1.798506
0.298000	1.797232
0.298500	1.796276
0.299000	1.795320
0.299500	1.795639
0.300000	1.795002
0.300500	1.795320
0.301000	1.795320
0.301500	1.796276
0.302000	1.795957
0.302500	1.794683
0.303000	1.793091
0.303500	1.792135
0.304000	1.794046
0.304500	1.794365
0.305000	1.795957
0.305500	1.795639
0.306000	1.795957
0.306500	1.795957
0.307000	1.794683
0.307500	1.794683
0.308000	1.794683
0.308500	1.796595
0.309000	1.797869
0.309500	1.798187
0.310000	1.796913
0.310500	1.795320
0.311000	1.795320
0.311500	1.794365
0.312000	1.794683
0.312500	1.795002
0.313000	1.796276
0.313500	1.795957
0.314000	1.795957
0.314500	1.794046
0.315000	1.793091
0.315500	1.793409
0.316000	1.794365
0.316500	1.795320
0.317000	1.797550
0.317500	1.796276
0.318000	1.795002
0.318500	1.796276
0.319000	1.795320
0.319500	1.795002
0.320000	1.796276
0.320500	1.796913
0.321000	1.797550
0.321500	1.797869
0.322000	1.796276
0.322500	1.794683
0.323000	1.795639
0.323500	1.794683
0.324000	1.795002
0.324500	1.795002
0.325000	1.795002
0.325500	1.795639
0.326000	1.795002
0.326500	1.794046
0.327000	1.792454
0.327500	1.792454
0.328000	1.794046
0.328500	1.795002
0.329000	1.796276
0.329500	1.796276
0.330000	1.796276
0.330500	1.795957
0.331000	1.795320
0.331500	1.795002
0.332000	1.795639
0.332500	1.796595
0.333000	1.797869
0.333500	1.797869
0.334000	1.796595
0.334500	1.795639
0.335000	1.794365
0.335500	1.795320
0.336000	1.794683
0.336500	1.794365
0.337000	1.795639
0.337500	1.796276
0.338000	1.795639
0.338500	1.793728
0.339000	1.793728
0.339500	1.793091
0.340000	1.793728
0.340500	1.795002
0.341000	1.796276
0.341500	1.796913
0.342000	1.796595
0.342500	1.796595
0.343000	1.795957
0.343500	1.795320
0.344000	1.796276
0.344500	1.797869
0.345000	1.798187
0.345500	1.798506
0.346000	1.797232
0.346500	1.796595
0.347000	1.795639
0.347500	1.794683
0.348000	1.795957
0.348500	1.795320
0.349000	1.795957
0.349500	1.795957
0.350000	1.795320
0.350500	1.794683
0.351000	1.794046
0.351500	1.793728
0.352000	1.795320
0.352500	1.795639
0.353000	1.796595
0.353500	1.796913
0.354000	1.797232
0.354500	1.796913
0.355000	1.795320
0.355500	1.795957
0.356000	1.796913
0.356500	1.798824
0.357000	1.799461
0.357500	1.798506
0.358000	1.797232
0.358500	1.796595
0.359000	1.795639
0.359500	1.795639
0.360000	1.795957
0.360500	1.795639
0.361000	1.796913
0.361500	1.797869
0.362000	1.795957
0.362500	1.794046
0.363000	1.793409
0.363500	1.794365
0.364000	1.795002
0.364500	1.797232
0.365000	1.796595
0.365500	1.796913
0.366000	1.796276
0.366500	1.796276
0.367000	1.796276
0.367500	1.796595
0.368000	1.797550
0.368500	1.798187
0.369000	1.799461
0.369500	1.798824
0.370000	1.797232
0.370500	1.796913
0.371000	1.796276
0.371500	1.795639
0.372000	1.795957
0.372500	1.795957
0.373000	1.797232
0.373500	1.797232
0.374000	1.795320
0.374500	1.794365
0.375000	1.793409
0.375500	1.794365
0.376000	1.795002
0.376500	1.795957
0.377000	1.795639
0.377500	1.796913
0.378000	1.797232
0.378500	1.796595
0.379000	1.796595
0.379500	1.796276
0.380000	1.796595
0.380500	1.798187
0.381000	1.798824
0.381500	1.798187
0.382000	1.797232
0.382500	1.795639
0.383000	1.795002
0.383500	1.795002
0.384000	1.796276
0.384500	1.795002
0.385000	1.796913
0.385500	1.795957
0.386000	1.794683
0.386500	1.793409
0.387000	1.793728
0.387500	1.794046
0.388000	1.795320
0.388500	1.796276
0.389000	1.796913
0.389500	1.796913
0.390000	1.796595
0.390500	1.796276
0.391000	1.795957
0.391500	1.796276
0.392000	1.796913
0.392500	1.798824
0.393000	1.797550
0.393500	1.797550
0.394000	1.796276
0.394500	1.795639
0.395000	1.794683
0.395500	1.795002
0.396000	1.795320
0.396500	1.795639
0.397000	1.796913
0.397500	1.796276
0.398000	1.795002
0.398500	1.793409
0.399000	1.793409
0.399500	1.794683
0.400000	1.795320
0.400500	1.795639
0.401000	1.796595
0.401500	1.796595
0.402000	1.795957
0.402500	1.795957
0.403000	1.795639
0.403500	1.795002
0.404000	1.796913
0.404500	1.798187
0.405000	1.797869
0.405500	1.796913
0.406000	1.795957
0.406500	1.795639
0.407000	1.795639
0.407500	1.794365
0.408000	1.795320
0.408500	1.795320
0.409000	1.795639
0.409500	1.796276
0.410000	1.794046
0.410500	1.793409
0.411000	1.793091
0.411500	1.793728
0.412000	1.795639
0.412500	1.795320
0.413000	1.796276
0.413500	1.796595
0.414000	1.796595
0.414500	1.796276
0.415000	1.795957
0.415500	1.795639
0.416000	1.796595
0.416500	1.797550
0.417000	1.798506
0.417500	1.797232
0.418000	1.796913
0.418500	1.795639
0.419000	1.795320
0.419500	1.794365
0.420000	1.795320
0.420500	1.795320
0.421000	1.796276
0.421500	1.795957
0.422000	1.794683
0.422500	1.794046
0.423000	1.793409
0.423500	1.794365
0.424000	1.795320
0.424500	1.796595
0.425000	1.796913
0.425500	1.796913
0.426000	1.796913
0.426500	1.796276
0.427000	1.796276
0.427500	1.796276
0.428000	1.797232
0.428500	1.798187
0.429000	1.799143
0.429500	1.797232
0.430000	1.795957
0.430500	1.795320
0.431000	1.795002
0.431500	1.795002
0.432000	1.795320
0.432500	1.796276
0.433000	1.795957
0.433500	1.795639
0.434000	1.795639
0.434500	1.793728
0.435000	1.793728
0.435500	1.794046
0.436000	1.795320
0.436500	1.796276
0.437000	1.797232
0.437500	1.796595
0.438000	1.797232
0.438500	1.795957
0.439000	1.796276
0.439500	1.796595
0.440000	1.795957
0.440500	1.798506
0.441000	1.797869
0.441500	1.797869
0.442000	1.797550
0.442500	1.796276
0.443000	1.795639
0.443500	1.795320
0.444000	1.795957
0.444500	1.796595
0.445000	1.796595
0.445500	1.796276
0.446000	1.795957
0.446500	1.794683
0.447000	1.793728
0.447500	1.795002
0.448000	1.795639
0.448500	1.796913
0.449000	1.796913
0.449500	1.797550
0.450000	1.797232
0.450500	1.797232
0.451000	1.795639
0.451500	1.795957
0.452000	1.796913
0.452500	1.797869
0.453000	1.798506
0.453500	1.798824
0.454000	1.797232
0.454500	1.795957
0.455000	1.796595
0.455500	1.795002
0.456000	1.795320
0.456500	1.771430
0.457000	1.799461
0.457500	1.796913
0.458000	1.796595
0.458500	1.795320
0.459000	1.794365
0.459500	1.795002
0.460000	1.795320
0.460500	1.796913
0.461000	1.796913
0.461500	1.798187
0.462000	1.798824
0.462500	1.796913
0.463000	1.796276
0.463500	1.796276
0.464000	1.797869
0.464500	1.798187
0.465000	1.799143
0.465500	1.798506
0.466000	1.797550
0.466500	1.797232
0.467000	1.797232
0.467500	1.796276
0.468000	1.795639
0.468500	1.796595
0.469000	1.796913
0.469500	1.797550
0.470000	1.796595
0.470500	1.795957
0.471000	1.794046
0.471500	1.794046
0.472000	1.794683
0.472500	1.795639
0.473000	1.797550
0.473500	1.796595
0.474000	1.798187
0.474500	1.798187
0.475000	1.796913
0.475500	1.796276
0.476000	1.797232
0.476500	1.797550
0.477000	1.798824
0.477500	1.798824
0.478000	1.798187
0.478500	1.797550
0.479000	1.796276
0.479500	1.795639
0.480000	1.796913
0.480500	1.795957
0.481000	1.796595
0.481500	1.797232
0.482000	1.796595
0.482500	1.795320
0.483000	1.794046
0.483500	1.794365
0.484000	1.794683
0.484500	1.796595
0.485000	1.797232
0.485500	1.796913
0.486000	1.796913
0.486500	1.797550
0.487000	1.796276
0.487500	1.795957
0.488000	1.796276
0.488500	1.796913
0.489000	1.798187
0.489500	1.799143
0.490000	1.797550
0.490500	1.796595
0.491000	1.795639
0.491500	1.795320
0.492000	1.795957
0.492500	1.795320
0.493000	1.795957
0.493500	1.796595
0.494000	1.796913
0.494500	1.795320
0.495000	1.794046
0.495500	1.792772
0.496000	1.795639
0.496500	1.795320
0.497000	1.795639
0.497500	1.796913
0.498000	1.797232
0.498500	1.796276
0.499000	1.796276
0.499500	1.795957
0.500000	1.795957
0.500500	1.796913
0.501000	1.797869
0.501500	1.798824
0.502000	1.798187
0.502500	1.796913
0.503000	1.795320
0.503500	1.795957
0.504000	1.795002
0.504500	1.795639
0.505000	1.796276
0.505500	1.796913
0.506000	1.796276
0.506500	1.795320
0.507000	1.794046
0.507500	1.794046
0.508000	1.793728
0.508500	1.795320
0.509000	1.795002
0.509500	1.796913
0.510000	1.796595
0.510500	1.796595
0.511000	1.795320
0.511500	1.795002
0.512000	1.795957
0.512500	1.796276
0.513000	1.797869
0.513500	1.798187
0.514000	1.797869
0.514500	1.796595
0.515000	1.795002
0.515500	1.795320
0.516000	1.795320
0.516500	1.795320
0.517000	1.797232
0.517500	1.796276
0.518000	1.795957
0.518500	1.795639
0.519000	1.794046
0.519500	1.793091
0.520000	1.793409
0.520500	1.793728
0.521000	1.795639
0.521500	1.795957
0.522000	1.795639
0.522500	1.796276
0.523000	1.796276
0.523500	1.795639
0.524000	1.794683
0.524500	1.795957
0.525000	1.796913
0.525500	1.798187
0.526000	1.797869
0.526500	1.796595
0.527000	1.795639
0.527500	1.795639
0.528000	1.795957
0.528500	1.795320
0.529000	1.795957
0.529500	1.795639
0.530000	1.796276
0.530500	1.795639
0.531000	1.793728
0.531500	1.794365
0.532000	1.793091
0.532500	1.795320
0.533000	1.795639
0.533500	1.796595
0.534000	1.796595
0.534500	1.796276
0.535000	1.796913
0.535500	1.795957
0.536000	1.795002
0.536500	1.796276
0.537000	1.796913
0.537500	1.798506
0.538000	1.797550
0.538500	1.796913
0.539000	1.795957
0.539500	1.795320
0.540000	1.795002
0.540500	1.795320
0.541000	1.795320
0.541500	1.795320
0.542000	1.795639
0.542500	1.795320
0.543000	1.793728
0.543500	1.793091
0.544000	1.792772
0.544500	1.795639
0.545000	1.795957
0.545500	1.795957
0.546000	1.796595
0.546500	1.796276
0.547000	1.796276
0.547500	1.795002
0.548000	1.795002
0.548500	1.796276
0.549000	1.798506
0.549500	1.798506
0.550000	1.796276
0.550500	1.795639
0.551000	1.795639
0.551500	1.794683
0.552000	1.795320
0.552500	1.795002
0.553000	1.795002
0.553500	1.796276
0.554000	1.795957
0.554500	1.794683
0.555000	1.793728
0.555500	1.793409
0.556000	1.793728
0.556500	1.794046
0.557000	1.795957
0.557500	1.796276
0.558000	1.796595
0.558500	1.796913
0.559000	1.795320
0.559500	1.795320
0.560000	1.795320
0.560500	1.795957
0.561000	1.797550
0.561500	1.797869
0.562000	1.797232
0.562500	1.796276
0.563000	1.795320
0.563500	1.795320
0.564000	1.795639
0.564500	1.795320
0.565000	1.795002
0.565500	1.795639
0.566000	1.794683
0.566500	1.794046
0.567000	1.793091
0.567500	1.792454
0.568000	1.794365
0.568500	1.795002
0.569000	1.795957
0.569500	1.796595
0.570000	1.796276
0.570500	1.795957
0.571000	1.795320
0.571500	1.795320
0.572000	1.795002
0.572500	1.796913
0.573000	1.797550
0.573500	1.797550
0.574000	1.796913
0.574500	1.795639
0.575000	1.795639
0.575500	1.793728
0.576000	1.794683
0.576500	1.794683
0.577000	1.795957
0.577500	1.795957
0.578000	1.795639
0.578500	1.794046
0.579000	1.794046
0.579500	1.792772
0.580000	1.794046
0.580500	1.795320
0.581000	1.796595
0.581500	1.796913
0.582000	1.796913
0.582500	1.796276
0.583000	1.795002
0.583500	1.795002
0.584000	1.795957
0.584500	1.796913
0.585000	1.797232
0.585500	1.797232
0.586000	1.796276
0.586500	1.795320
0.587000	1.794365
0.587500	1.794683
0.588000	1.794365
0.588500	1.795002
0.589000	1.795639
0.589500	1.795957
0.590000	1.795320
0.590500	1.794046
0.591000	1.792772
0.591500	1.793091
0.592000	1.794365
0.592500	1.795639
0.593000	1.795957
0.593500	1.796276
0.594000	1.795639
0.594500	1.795320
0.595000	1.794365
0.595500	1.795320
0.596000	1.795957
0.596500	1.796913
0.597000	1.797232
0.597500	1.796276
0.598000	1.795957
0.598500	1.795639
0.599000	1.794046
0.599500	1.794365
0.600000	1.794046
0.600500	1.795320
0.601000	1.795957
0.601500	1.795320
0.602000	1.794683
0.602500	1.793091
0.603000	1.792135
0.603500	1.793409
0.604000	1.794683
0.604500	1.795002
0.605000	1.794683
0.605500	1.795957
0.606000	1.795002
0.606500	1.794683
0.607000	1.794046
0.607500	1.794365
0.608000	1.795639
0.608500	1.796913
0.609000	1.797869
0.609500	1.797232
0.610000	1.795320
0.610500	1.795320
0.611000	1.795002
0.611500	1.793728
0.612000	1.794046
0.612500	1.795002
0.613000	1.794683
0.613500	1.795002
0.614000	1.794365
0.614500	1.792772
0.615000	1.791498
0.615500	1.792772
0.616000	1.794683
0.616500	1.795002
0.617000	1.795002
0.617500	1.795957
0.618000	1.796276
0.618500	1.795639
0.619000	1.794365
0.619500	1.794365
0.620000	1.795639
0.620500	1.797869
0.621000	1.797550
0.621500	1.796595
0.622000	1.796276
0.622500	1.795320
0.623000	1.795002
0.623500	1.794365
0.624000	1.795002
0.624500	1.795320
0.625000	1.795320
0.625500	1.795320
0.626000	1.795002
0.626500	1.793409
0.627000	1.792772
0.627500	1.793091
0.628000	1.794683
0.628500	1.795320
0.629000	1.796276
0.629500	1.795320
0.630000	1.795639
0.630500	1.795002
0.631000	1.795002
0.631500	1.795002
0.632000	1.795957
0.632500	1.797550
0.633000	1.797869
0.633500	1.797550
0.634000	1.796595
0.634500	1.795957
0.635000	1.795320
0.635500	1.794046
0.636000	1.794683
0.636500	1.795957
0.637000	1.796595
0.637500	1.795639
0.638000	1.795320
0.638500	1.792772
0.639000	1.793091
0.639500	1.793728
0.640000	1.796276
0.640500	1.795639
0.641000	1.795639
0.641500	1.796276
0.642000	1.796595
0.642500	1.795957
0.643000	1.795002
0.643500	1.795639
0.644000	1.795957
0.644500	1.798187
0.645000	1.797869
0.645500	1.795957
0.646000	1.794683
0.646500	1.795957
0.647000	1.795002
0.647500	1.795002
0.648000	1.794365
0.648500	1.795002
0.649000	1.795639
0.649500	1.795002
0.650000	1.794046
0.650500	1.793409
0.651000	1.793091
0.651500	1.793409
0.652000	1.794046
0.652500	1.795639
0.653000	1.796276
0.653500	1.796276
0.654000	1.795320
0.654500	1.795002
0.655000	1.795320
0.655500	1.795957
0.656000	1.797232
0.656500	1.797232
0.657000	1.798187
0.657500	1.797232
0.658000	1.796595
0.658500	1.795002
0.659000	1.794365
0.659500	1.793728
0.660000	1.794046
0.660500	1.795002
0.661000	1.795957
0.661500	1.795002
0.662000	1.793728
0.662500	1.792454
0.663000	1.792772
0.663500	1.794365
0.664000	1.795320
0.664500	1.795639
0.665000	1.796595
0.665500	1.795639
0.666000	1.795957
0.666500	1.795639
0.667000	1.795639
0.667500	1.797232
0.668000	1.798187
0.668500	1.798506
0.669000	1.797869
0.669500	1.795957
0.670000	1.795639
0.670500	1.794683
0.671000	1.794683
0.671500	1.795639
0.672000	1.795957
0.672500	1.795957
0.673000	1.795639
0.673500	1.795320
0.674000	1.794046
0.674500	1.793409
0.675000	1.794683
0.675500	1.795002
0.676000	1.795957
0.676500	1.795639
0.677000	1.796913
0.677500	1.795957
0.678000	1.796595
0.678500	1.795639
0.679000	1.795957
0.679500	1.796913
0.680000	1.798824
0.680500	1.798824
0.681000	1.797232
0.681500	1.796913
0.682000	1.796595
0.682500	1.795639
0.683000	1.795957
0.683500	1.795002
0.684000	1.796595
0.684500	1.796276
0.685000	1.796276
0.685500	1.794683
0.686000	1.793728
0.686500	1.793728
0.687000	1.795002
0.687500	1.795639
0.688000	1.796276
0.688500	1.796595
0.689000	1.796913
0.689500	1.796595
0.690000	1.795639
0.690500	1.795957
0.691000	1.795320
0.691500	1.796913
0.692000	1.798187
0.692500	1.798187
0.693000	1.796595
0.693500	1.796276
0.694000	1.795320
0.694500	1.794365
0.695000	1.795320
0.695500	1.795639
0.696000	1.796595
0.696500	1.797232
0.697000	1.795957
0.697500	1.795002
0.698000	1.793091
0.698500	1.794683
0.699000	1.794683
0.699500	1.795320
0.700000	1.795957
0.700500	1.796595
0.701000	1.795957
0.701500	1.796276
0.702000	1.795639
0.702500	1.795639
0.703000	1.795957
0.703500	1.797869
0.704000	1.798824
0.704500	1.798187
0.705000	1.797869
0.705500	1.796595
0.706000	1.796595
0.706500	1.795320
0.707000	1.795320
0.707500	1.796276
0.708000	1.797232
0.708500	1.797232
0.709000	1.795957
0.709500	1.794683
0.710000	1.793728
0.710500	1.794046
0.711000	1.795320
0.711500	1.796276
0.712000	1.796276
0.712500	1.797232
0.713000	1.796913
0.713500	1.796595
0.714000	1.795639
0.714500	1.795320
0.715000	1.796276
0.715500	1.798187
0.716000	1.799143
0.716500	1.798824
0.717000	1.797550
0.717500	1.796913
0.718000	1.796276
0.718500	1.796913
0.719000	1.796276
0.719500	1.796276
0.720000	1.797869
0.720500	1.796595
0.721000	1.796913
0.721500	1.794365
0.722000	1.793728
0.722500	1.794683
0.723000	1.795002
0.723500	1.796913
0.724000	1.796595
0.724500	1.798187
0.725000	1.797550
0.725500	1.797550
0.726000	1.795957
0.726500	1.796276
0.727000	1.797869
0.727500	1.799143
0.728000	1.800417
0.728500	1.798506
0.729000	1.797550
0.729500	1.796913
0.730000	1.795320
0.730500	1.795320
0.731000	1.796595
0.731500	1.797232
0.732000	1.796913
0.732500	1.796913
0.733000	1.796913
0.733500	1.794683
0.734000	1.794683
0.734500	1.793728
0.735000	1.795639
0.735500	1.796913
0.736000	1.796913
0.736500	1.797550
0.737000	1.796913
0.737500	1.796913
0.738000	1.796595
0.738500	1.796595
0.739000	1.797232
0.739500	1.799461
0.740000	1.799461
0.740500	1.798506
0.741000	1.797869
0.741500	1.797869
0.742000	1.795957
0.742500	1.795957
0.743000	1.796276
0.743500	1.796913
0.744000	1.796913
0.744500	1.796913
0.745000	1.796276
0.745500	1.793728
0.746000	1.793409
0.746500	1.794365
0.747000	1.796595
0.747500	1.796276
0.748000	1.796276
0.748500	1.797550
0.749000	1.796913
0.749500	1.796276
0.750000	1.795639
0.750500	1.796913
0.751000	1.797869
0.751500	1.799461
0.752000	1.798506
0.752500	1.798187
0.753000	1.795957
0.753500	1.795320
0.754000	1.795639
0.754500	1.795320
0.755000	1.795320
0.755500	1.796595
0.756000	1.797232
0.756500	1.796913
0.757000	1.794683
0.757500	1.793409
0.758000	1.793728
0.758500	1.795002
0.759000	1.796276
0.759500	1.796913
0.760000	1.796913
0.760500	1.796595
0.761000	1.796913
0.761500	1.796595
0.762000	1.796276
0.762500	1.796595
0.763000	1.797869
0.763500	1.799143
0.764000	1.798824
0.764500	1.797232
0.765000	1.797232
0.765500	1.795957
0.766000	1.795639
0.766500	1.796276
0.767000	1.796595
0.767500	1.797232
0.768000	1.797232
0.768500	1.795957
0.769000	1.794683
0.769500	1.793728
0.770000	1.795002
0.770500	1.795957
0.771000	1.796595
0.771500	1.796913
0.772000	1.796595
0.772500	1.796913
0.773000	1.797550
0.773500	1.795957
0.774000	1.796595
0.774500	1.797232
0.775000	1.799461
0.775500	1.798187
0.776000	1.797232
0.776500	1.796913
0.777000	1.796913
0.777500	1.795320
0.778000	1.796595
0.778500	1.796276
0.779000	1.797232
0.779500	1.797232
0.780000	1.797232
0.780500	1.795639
0.781000	1.794683
0.781500	1.795002
0.782000	1.796276
0.782500	1.796595
0.783000	1.798187
0.783500	1.797232
0.784000	1.798187
0.784500	1.797869
0.785000	1.797550
0.785500	1.796913
0.786000	1.797232
0.786500	1.798506
0.787000	1.799461
0.787500	1.799143
0.788000	1.798506
0.788500	1.797232
0.789000	1.796913
0.789500	1.796913
0.790000	1.796595
0.790500	1.797232
0.791000	1.797869
0.791500	1.798187
0.792000	1.796595
0.792500	1.794683
0.793000	1.794046
0.793500	1.795320
0.794000	1.796595
0.794500	1.797869
0.795000	1.796913
0.795500	1.796913
0.796000	1.796913
0.796500	1.796595
0.797000	1.796595
0.797500	1.797550
0.798000	1.798187
0.798500	1.799461
0.799000	1.798824
0.799500	1.797232
0.800000	1.797232
0.800500	1.796595
0.801000	1.796276
0.801500	1.796276
0.802000	1.797869
0.802500	1.797232
0.803000	1.796595
0.803500	1.795957
0.804000	1.795002
0.804500	1.793728
0.805000	1.795639
0.805500	1.795639
0.806000	1.797232
0.806500	1.797869
0.807000	1.798187
0.807500	1.796595
0.808000	1.796595
0.808500	1.796276
0.809000	1.797232
0.809500	1.797869
0.810000	1.798824
0.810500	1.799461
0.811000	1.797869
0.811500	1.797550
0.812000	1.796913
0.812500	1.796913
0.813000	1.795957
0.813500	1.796276
0.814000	1.797232
0.814500	1.797232
0.815000	1.796595
0.815500	1.795320
0.816000	1.793409
0.816500	1.795320
0.817000	1.794683
0.817500	1.796276
0.818000	1.796913
0.818500	1.797232
0.819000	1.797232
0.819500	1.797232
0.820000	1.797232
0.820500	1.796913
0.821000	1.796913
0.821500	1.798506
0.822000	1.799143
0.822500	1.798506
0.823000	1.797869
0.823500	1.796595
0.824000	1.796276
0.824500	1.796913
0.825000	1.796595
0.825500	1.796913
0.826000	1.797550
0.826500	1.797232
0.827000	1.796595
0.827500	1.795002
0.828000	1.795002
0.828500	1.794365
0.829000	1.795639
0.829500	1.796913
0.830000	1.797869
0.830500	1.796913
0.831000	1.797232
0.831500	1.797232
0.832000	1.797232
0.832500	1.795957
0.833000	1.798506
0.833500	1.799143
0.834000	1.799461
0.834500	1.797869
0.835000	1.797869
0.835500	1.796276
0.836000	1.795957
0.836500	1.795957
0.837000	1.795957
0.837500	1.796913
0.838000	1.796913
0.838500	1.796913
0.839000	1.795320
0.839500	1.794046
0.840000	1.794046
0.840500	1.795320
0.841000	1.796595
0.841500	1.797232
0.842000	1.797550
0.842500	1.797869
0.843000	1.796913
0.843500	1.796276
0.844000	1.796913
0.844500	1.796276
0.845000	1.797869
0.845500	1.799461
0.846000	1.798824
0.846500	1.797869
0.847000	1.796913
0.847500	1.796276
0.848000	1.795002
0.848500	1.794683
0.849000	1.795639
0.849500	1.796913
0.850000	1.796595
0.850500	1.796913
0.851000	1.796276
0.851500	1.794365
0.852000	1.793728
0.852500	1.795320
0.853000	1.795639
0.853500	1.796913
0.854000	1.796913
0.854500	1.797550
0.855000	1.796913
0.855500	1.796276
0.856000	1.796595
0.856500	1.796276
0.857000	1.797869
0.857500	1.798187
0.858000	1.799143
0.858500	1.798824
0.859000	1.796913
0.859500	1.796595
0.860000	1.796276
0.860500	1.796276
0.861000	1.796595
0.861500	1.796913
0.862000	1.797232
0.862500	1.796913
0.863000	1.795957
0.863500	1.794683
0.864000	1.794046
0.864500	1.795320
0.865000	1.795957
0.865500	1.796913
0.866000	1.797232
0.866500	1.797869
0.867000	1.797232
0.867500	1.796913
0.868000	1.796595
0.868500	1.796595
0.869000	1.796913
0.869500	1.798824
0.870000	1.798824
0.870500	1.798824
0.871000	1.798187
0.871500	1.797869
0.872000	1.796913
0.872500	1.796595
0.873000	1.795639
0.873500	1.796913
0.874000	1.797869
0.874500	1.797550
0.875000	1.797232
0.875500	1.796276
0.876000	1.795957
0.876500	1.794365
0.877000	1.796276
0.877500	1.796595
0.878000	1.797232
0.878500	1.797869
0.879000	1.797869
0.879500	1.797232
0.880000	1.796913
0.880500	1.796595
0.881000	1.797232
0.881500	1.797869
0.882000	1.799780
0.882500	1.799461
0.883000	1.798187
0.883500	1.798187
0.884000	1.797232
0.884500	1.796913
0.885000	1.796913
0.885500	1.797232
0.886000	1.796913
0.886500	1.797869
0.887000	1.796913
0.887500	1.795639
0.888000	1.795002
0.888500	1.794683
0.889000	1.794683
0.889500	1.796595
0.890000	1.796595
0.890500	1.797232
0.891000	1.797232
0.891500	1.798187
0.892000	1.797232
0.892500	1.796276
0.893000	1.796595
0.893500	1.797550
0.894000	1.799461
0.894500	1.799143
0.895000	1.797869
0.895500	1.797869
0.896000	1.796595
0.896500	1.796595
0.897000	1.795957
0.897500	1.795639
0.898000	1.797232
0.898500	1.798187
0.899000	1.796913
0.899500	1.795957
0.900000	1.795002
0.900500	1.794683
0.901000	1.795639
0.901500	1.796913
0.902000	1.797869
0.902500	1.798824
0.903000	1.798506
0.903500	1.798187
0.904000	1.797869
0.904500	1.797232
0.905000	1.796913
0.905500	1.799780
0.906000	1.799780
0.906500	1.800098
0.907000	1.798506
0.907500	1.797550
0.908000	1.797550
0.908500	1.796913
0.909000	1.796276
0.909500	1.796595
0.910000	1.796913
0.910500	1.797232
0.911000	1.796913
0.911500	1.796276
0.912000	1.795002
0.912500	1.795002
0.913000	1.795320
0.913500	1.796913
0.914000	1.796913
0.914500	1.798187
0.915000	1.798187
0.915500	1.798187
0.916000	1.797550
0.916500	1.796913
0.917000	1.796913
0.917500	1.798506
0.918000	1.799780
0.918500	1.800098
0.919000	1.798824
0.919500	1.797550
0.920000	1.796595
0.920500	1.796913
0.921000	1.796913
0.921500	1.796913
0.922000	1.796913
0.922500	1.797869
0.923000	1.797550
0.923500	1.795957
0.924000	1.795002
0.924500	1.795002
0.925000	1.795639
0.925500	1.796595
0.926000	1.796913
0.926500	1.797869
0.927000	1.797869
0.927500	1.797869
0.928000	1.797550
0.928500	1.796595
0.929000	1.796595
0.929500	1.797869
0.930000	1.799143
0.930500	1.799143
0.931000	1.798824
0.931500	1.797550
0.932000	1.796913
0.932500	1.795957
0.933000	1.795957
0.933500	1.795320
0.934000	1.796276
0.934500	1.796595
0.935000	1.796913
0.935500	1.796595
0.936000	1.794683
0.936500	1.794365
0.937000	1.795320
0.937500	1.795957
0.938000	1.796595
0.938500	1.796913
0.939000	1.797232
0.939500	1.796595
0.940000	1.796913
0.940500	1.796595
0.941000	1.796276
0.941500	1.795957
0.942000	1.798506
0.942500	1.798824
0.943000	1.796913
0.943500	1.796595
0.944000	1.796276
0.944500	1.796276
0.945000	1.795639
0.945500	1.795957
0.946000	1.795957
0.946500	1.796276
0.947000	1.796595
0.947500	1.796276
0.948000	1.794046
0.948500	1.793728
0.949000	1.794683
0.949500	1.795957
0.950000	1.795957
0.950500	1.796276
0.951000	1.797232
0.951500	1.796595
0.952000	1.795957
0.952500	1.795639
0.953000	1.795957
0.953500	1.796595
0.954000	1.798187
0.954500	1.799143
0.955000	1.797550
0.955500	1.795639
0.956000	1.795639
0.956500	1.795957
0.957000	1.795002
0.957500	1.795957
0.958000	1.795957
0.958500	1.797550
0.959000	1.795957
0.959500	1.795639
0.960000	1.793728
0.960500	1.794046
0.961000	1.795002
0.961500	1.795957
0.962000	1.796913
0.962500	1.797869
0.963000	1.797550
0.963500	1.796913
0.964000	1.795957
0.964500	1.795957
0.965000	1.795320
0.965500	1.798187
0.966000	1.798824
0.966500	1.798506
0.967000	1.796595
0.967500	1.796595
0.968000	1.796276
0.968500	1.796276
0.969000	1.795957
0.969500	1.796276
0.970000	1.796913
0.970500	1.796913
0.971000	1.795957
0.971500	1.795002
0.972000	1.794046
0.972500	1.793728
0.973000	1.795639
0.973500	1.796276
0.974000	1.797550
0.974500	1.797550
0.975000	1.796913
0.975500	1.797550
0.976000	1.796276
0.976500	1.796913
0.977000	1.797550
0.977500	1.798824
0.978000	1.799461
0.978500	1.799143
0.979000	1.797869
0.979500	1.796595
0.980000	1.796913
0.980500	1.796276
0.981000	1.796913
0.981500	1.796276
0.982000	1.797232
0.982500	1.796913
0.983000	1.796276
0.983500	1.794365
0.984000	1.795002
0.984500	1.794683
0.985000	1.795002
0.985500	1.796913
0.986000	1.796913
0.986500	1.796913
0.987000	1.797232
0.987500	1.795957
0.988000	1.796276
0.988500	1.796913
0.989000	1.797550
0.989500	1.798187
0.990000	1.799461
0.990500	1.799143
0.991000	1.797869
0.991500	1.796276
0.992000	1.796595
0.992500	1.796595
0.993000	1.795639
0.993500	1.796276
0.994000	1.796913
0.994500	1.797232
0.995000	1.795957
0.995500	1.795320
0.996000	1.793728
0.996500	1.795002
0.997000	1.795639
0.997500	1.796913
0.998000	1.796913
0.998500	1.797550
0.999000	1.797550
0.999500	1.797232
1.000000	1.796913
1.000500	1.796276
1.001000	1.797232
1.001500	1.798187
1.002000	1.798824
1.002500	1.798506
1.003000	1.797232
1.003500	1.797232
1.004000	1.796913
1.004500	1.796595
1.005000	1.796595
1.005500	1.796276
1.006000	1.797550
1.006500	1.796595
1.007000	1.796913
1.007500	1.795320
1.008000	1.794046
1.008500	1.794365
1.009000	1.796595
1.009500	1.797232
1.010000	1.797869
1.010500	1.797869
1.011000	1.797550
1.011500	1.797550
1.012000	1.796913
1.012500	1.796913
1.013000	1.797232
1.013500	1.798824
1.014000	1.799461
1.014500	1.799143
1.015000	1.797232
1.015500	1.796913
1.016000	1.796913
1.016500	1.796595
1.017000	1.796913
1.017500	1.796913
1.018000	1.797232
1.018500	1.797550
1.019000	1.796913
1.019500	1.795320
1.020000	1.795320
1.020500	1.795639
1.021000	1.795957
1.021500	1.796595
1.022000	1.796913
1.022500	1.797869
1.023000	1.797232
1.023500	1.797550
1.024000	1.796913
1.024500	1.796913
1.025000	1.796913
1.025500	1.798506
1.026000	1.799143
1.026500	1.799780
1.027000	1.797869
1.027500	1.797232
1.028000	1.796595
1.028500	1.796913
1.029000	1.795639
1.029500	1.796595
1.030000	1.797550
1.030500	1.796595
1.031000	1.796913
1.031500	1.795002
1.032000	1.794365
1.032500	1.794683
1.033000	1.796595
1.033500	1.796595
1.034000	1.797232
1.034500	1.796913
1.035000	1.798506
1.035500	1.796913
1.036000	1.796595
1.036500	1.795957
1.037000	1.796913
1.037500	1.798187
1.038000	1.799780
1.038500	1.800098
1.039000	1.798187
1.039500	1.797232
1.040000	1.797232
1.040500	1.796913
1.041000	1.797869
1.041500	1.796913
1.042000	1.797550
1.042500	1.797232
1.043000	1.797232
1.043500	1.796276
1.044000	1.795957
1.044500	1.795320
1.045000	1.796276
1.045500	1.796595
1.046000	1.797550
1.046500	1.797232
1.047000	1.798187
1.047500	1.797869
1.048000	1.797869
1.048500	1.796276
1.049000	1.797869
1.049500	1.799143
1.050000	1.800417
1.050500	1.799461
1.051000	1.798506
1.051500	1.797232
1.052000	1.797232
1.052500	1.796595
1.053000	1.796595
1.053500	1.797232
1.054000	1.797869
1.054500	1.797550
1.055000	1.797232
1.055500	1.796276
1.056000	1.795639
1.056500	1.795002
1.057000	1.796276
1.057500	1.796913
1.058000	1.796913
1.058500	1.798506
1.059000	1.799143
1.059500	1.797869
1.060000	1.797550
1.060500	1.796276
1.061000	1.797232
1.061500	1.798824
1.062000	1.799780
1.062500	1.800098
1.063000	1.799461
1.063500	1.798187
1.064000	1.798187
1.064500	1.797232
1.065000	1.796595
1.065500	1.797232
1.066000	1.798187
1.066500	1.798506
1.067000	1.797869
1.067500	1.796913
1.068000	1.795957
1.068500	1.795639
1.069000	1.796595
1.069500	1.797869
1.070000	1.798187
1.070500	1.798187
1.071000	1.799143
1.071500	1.798506
1.072000	1.798187
1.072500	1.797550
1.073000	1.797869
1.073500	1.799143
1.074000	1.800417
1.074500	1.801373
1.075000	1.801054
1.075500	1.799461
1.076000	1.798824
1.076500	1.797232
1.077000	1.797869
1.077500	1.797232
1.078000	1.797550
1.078500	1.799143
1.079000	1.798187
1.079500	1.798187
1.080000	1.795957
1.080500	1.795639
1.081000	1.795957
1.081500	1.796913
1.082000	1.798824
1.082500	1.800098
1.083000	1.798824
1.083500	1.798824
1.084000	1.798187
1.084500	1.797550
1.085000	1.798187
1.085500	1.798824
1.086000	1.799143
1.086500	1.801054
1.087000	1.800098
1.087500	1.798824
1.088000	1.798187
1.088500	1.797869
1.089000	1.796913
1.089500	1.797232
1.090000	1.797550
1.090500	1.799780
1.091000	1.798506
1.091500	1.798187
1.092000	1.797232
1.092500	1.795320
1.093000	1.796276
1.093500	1.797232
1.094000	1.797869
1.094500	1.798506
1.095000	1.798506
1.095500	1.799143
1.096000	1.799143
1.096500	1.798506
1.097000	1.797869
1.097500	1.798506
1.098000	1.799780
1.098500	1.800736
1.099000	1.800736
1.099500	1.798506
1.100000	1.798506
1.100500	1.797550
1.101000	1.797550
1.101500	1.797232
1.102000	1.798187
1.102500	1.798187
1.103000	1.797550
1.103500	1.797232
1.104000	1.795957
1.104500	1.795639
1.105000	1.795957
1.105500	1.797550
1.106000	1.797869
1.106500	1.798187
1.107000	1.799143
1.107500	1.798506
1.108000	1.798824
1.108500	1.797550
1.109000	1.797869
1.109500	1.797869
1.110000	1.799461
1.110500	1.799143
1.111000	1.799780
1.111500	1.799143
1.112000	1.797869
1.112500	1.797232
1.113000	1.797232
1.113500	1.796913
1.114000	1.798187
1.114500	1.797869
1.115000	1.797869
1.115500	1.796913
1.116000	1.795957
1.116500	1.795957
1.117000	1.795957
1.117500	1.796595
1.118000	1.797869
1.118500	1.798187
1.119000	1.798824
1.119500	1.798187
1.120000	1.797232
1.120500	1.798187
1.121000	1.796595
1.121500	1.798187
1.122000	1.799461
1.122500	1.799780
1.123000	1.799143
1.123500	1.798824
1.124000	1.797869
1.124500	1.797550
1.125000	1.796595
1.125500	1.796276
1.126000	1.796913
1.126500	1.797869
1.127000	1.798824
1.127500	1.796913
1.128000	1.796595
1.128500	1.795320
1.129000	1.795957
1.129500	1.797232
1.130000	1.797232
1.130500	1.798187
1.131000	1.798824
1.131500	1.798506
1.132000	1.797232
1.132500	1.796913
1.133000	1.796913
1.133500	1.797869
1.134000	1.799143
1.134500	1.800736
1.135000	1.799461
1.135500	1.798824
1.136000	1.797550
1.136500	1.797232
1.137000	1.797550
1.137500	1.797869
1.138000	1.797550
1.138500	1.797550
1.139000	1.798187
1.139500	1.797232
1.140000	1.795639
1.140500	1.795320
1.141000	1.796276
1.141500	1.796913
1.142000	1.797232
1.142500	1.797550
1.143000	1.798824
1.143500	1.798506
1.144000	1.797550
1.144500	1.797869
1.145000	1.797550
1.145500	1.797550
1.146000	1.798824
1.146500	1.800417
1.147000	1.799461
1.147500	1.799143
1.148000	1.798187
1.148500	1.796913
1.149000	1.797232
1.149500	1.797550
1.150000	1.798187
1.150500	1.798187
1.151000	1.797550
1.151500	1.797550
1.152000	1.796276
1.152500	1.795639
1.153000	1.795002
1.153500	1.795639
1.154000	1.796913
1.154500	1.797550
1.155000	1.798506
1.155500	1.798824
1.156000	1.797869
1.156500	1.797869
1.157000	1.797550
1.157500	1.797869
1.158000	1.798187
1.158500	1.799461
1.159000	1.800736
1.159500	1.798824
1.160000	1.797869
1.160500	1.797232
1.161000	1.796276
1.161500	1.796595
1.162000	1.796595
1.162500	1.796913
1.163000	1.797550
1.163500	1.797869
1.164000	1.797550
1.164500	1.795320
1.165000	1.794365
1.165500	1.795639
1.166000	1.795957
1.166500	1.797550
1.167000	1.797550
1.167500	1.797550
1.168000	1.798187
1.168500	1.797232
1.169000	1.796913
1.169500	1.796276
1.170000	1.798824
1.170500	1.796913
1.171000	1.799780
1.171500	1.798824
1.172000	1.797869
1.172500	1.797550
1.173000	1.796595
1.173500	1.796276
1.174000	1.795957
1.174500	1.796913
1.175000	1.796913
1.175500	1.796913
1.176000	1.796913
1.176500	1.795320
1.177000	1.794683
1.177500	1.794365
1.178000	1.796276
1.178500	1.796595
1.179000	1.796913
1.179500	1.797232
1.180000	1.797869
1.180500	1.797550
1.181000	1.796595
1.181500	1.796913
1.182000	1.797550
1.182500	1.799461
1.183000	1.800098
1.183500	1.800736
1.184000	1.798824
1.184500	1.798506
1.185000	1.797550
1.185500	1.796913
1.186000	1.796913
1.186500	1.796913
1.187000	1.798506
1.187500	1.797869
1.188000	1.797232
1.188500	1.796595
1.189000	1.795002
1.189500	1.794683
1.190000	1.796276
1.190500	1.796595
1.191000	1.797550
1.191500	1.798824
1.192000	1.798187
1.192500	1.797869
1.193000	1.797869
1.193500	1.796913
1.194000	1.797232
1.194500	1.798824
1.195000	1.799461
1.195500	1.800098
1.196000	1.799780
1.196500	1.797869
1.197000	1.798187
1.197500	1.795957
1.198000	1.796595
1.198500	1.796913
1.199000	1.797550
1.199500	1.797869
1.200000	1.797232
1.200500	1.795639
1.201000	1.795957
1.201500	1.794683
1.202000	1.796913
1.202500	1.797550
1.203000	1.797232
1.203500	1.798187
1.204000	1.798506
1.204500	1.799461
1.205000	1.797550
1.205500	1.796595
1.206000	1.797550
1.206500	1.798187
1.207000	1.800736
1.207500	1.800736
1.208000	1.799780
1.208500	1.799143
1.209000	1.797869
1.209500	1.797232
1.210000	1.796595
1.210500	1.796595
1.211000	1.798187
1.211500	1.798824
1.212000	1.797550
1.212500	1.797550
1.213000	1.796595
1.213500	1.795639
1.214000	1.795957
1.214500	1.797232
1.215000	1.797869
1.215500	1.798506
1.216000	1.798506
1.216500	1.799143
1.217000	1.798187
1.217500	1.797869
1.218000	1.797232
1.218500	1.797869
1.219000	1.799143
1.219500	1.800098
1.220000	1.800417
1.220500	1.799780
1.221000	1.798187
1.221500	1.797550
1.222000	1.796595
1.222500	1.796913
1.223000	1.796913
1.223500	1.797869
1.224000	1.797550
1.224500	1.797550
1.225000	1.795957
1.225500	1.795320
1.226000	1.795957
1.226500	1.796913
1.227000	1.798506
1.227500	1.798506
1.228000	1.798824
1.228500	1.798506
1.229000	1.798187
1.229500	1.797869
1.230000	1.797232
1.230500	1.798187
1.231000	1.799143
1.231500	1.800417
1.232000	1.800417
1.232500	1.798824
1.233000	1.797232
1.233500	1.797550
1.234000	1.796913
1.234500	1.797550
1.235000	1.796913
1.235500	1.797869
1.236000	1.798506
1.236500	1.798187
1.237000	1.796595
1.237500	1.795002
1.238000	1.795002
1.238500	1.796595
1.239000	1.797232
1.239500	1.798824
1.240000	1.798187
1.240500	1.798187
1.241000	1.797550
1.241500	1.797550
1.242000	1.797550
1.242500	1.797232
1.243000	1.799143
1.243500	1.800736
1.244000	1.799780
1.244500	1.799780
1.245000	1.798187
1.245500	1.796913
1.246000	1.796913
1.246500	1.796913
1.247000	1.796913
1.247500	1.797550
1.248000	1.797232
1.248500	1.797550
1.249000	1.796595
1.249500	1.795639
1.250000	1.794365
1.250500	1.795957
1.251000	1.796913
1.251500	1.797869
1.252000	1.798506
1.252500	1.797869
1.253000	1.798187
1.253500	1.797232
1.254000	1.797869
1.254500	1.797550
1.255000	1.798824
1.255500	1.799780
1.256000	1.800417
1.256500	1.799143
1.257000	1.797869
1.257500	1.797232
1.258000	1.796595
1.258500	1.797232
1.259000	1.797232
1.259500	1.797232
1.260000	1.797232
1.260500	1.797232
1.261000	1.796276
1.261500	1.794683
1.262000	1.795002
1.262500	1.795957
1.263000	1.796913
1.263500	1.797550
1.264000	1.797869
1.264500	1.799143
1.265000	1.797869
1.265500	1.797869
1.266000	1.797232
1.266500	1.797232
1.267000	1.798824
1.267500	1.799780
1.268000	1.799461
1.268500	1.799461
1.269000	1.797869
1.269500	1.797232
1.270000	1.798187
1.270500	1.796276
1.271000	1.797232
1.271500	1.797232
1.272000	1.798187
1.272500	1.797550
1.273000	1.797232
1.273500	1.795639
1.274000	1.795002
1.274500	1.795320
1.275000	1.795320
1.275500	1.797869
1.276000	1.797869
1.276500	1.798824
1.277000	1.798187
1.277500	1.797869
1.278000	1.796595
1.278500	1.796913
1.279000	1.796595
1.279500	1.797550
1.280000	1.799461
1.280500	1.799461
1.281000	1.799461
1.281500	1.797869
1.282000	1.797232
1.282500	1.797550
1.283000	1.796913
1.283500	1.797232
1.284000	1.797869
1.284500	1.797869
1.285000	1.797869
1.285500	1.796595
1.286000	1.795957
1.286500	1.795639
1.287000	1.795957
1.287500	1.797232
1.288000	1.798187
1.288500	1.798187
1.289000	1.798187
1.289500	1.798187
1.290000	1.797869
1.290500	1.797232
1.291000	1.798506
1.291500	1.799461
1.292000	1.799461
1.292500	1.801373
1.293000	1.800098
1.293500	1.799461
1.294000	1.797869
1.294500	1.797550
1.295000	1.797232
1.295500	1.797550
1.296000	1.796913
1.296500	1.797869
1.297000	1.798506
1.297500	1.796913
1.298000	1.795957
1.298500	1.795957
1.299000	1.796595
1.299500	1.797550
1.300000	1.798187
1.300500	1.798187
1.301000	1.799143
1.301500	1.799143
1.302000	1.798187
1.302500	1.797550
1.303000	1.797232
1.303500	1.797869
1.304000	1.798824
1.304500	1.800098
1.305000	1.800098
1.305500	1.799143
1.306000	1.798824
1.306500	1.797869
1.307000	1.797232
1.307500	1.797869
1.308000	1.796595
1.308500	1.797232
1.309000	1.797550
1.309500	1.797232
1.310000	1.796276
1.310500	1.795639
1.311000	1.794365
1.311500	1.796276
1.312000	1.796913
1.312500	1.797232
1.313000	1.798187
1.313500	1.798187
1.314000	1.798187
1.314500	1.797550
1.315000	1.796595
1.315500	1.796913
1.316000	1.798506
1.316500	1.801054
1.317000	1.800098
1.317500	1.799780
1.318000	1.798824
1.318500	1.796913
1.319000	1.796595
1.319500	1.795957
1.320000	1.796276
1.320500	1.796913
1.321000	1.797550
1.321500	1.796913
1.322000	1.797232
1.322500	1.795957
1.323000	1.795002
1.323500	1.795002
1.324000	1.796913
1.324500	1.798187
1.325000	1.797869
1.325500	1.797869
1.326000	1.798187
1.326500	1.796595
1.327000	1.797550
1.327500	1.796913
1.328000	1.797550
1.328500	1.798506
1.329000	1.800098
1.329500	1.798824
1.330000	1.796913
1.330500	1.795639
1.331000	1.796276
1.331500	1.796595
1.332000	1.796276
1.332500	1.796913
1.333000	1.797869
1.333500	1.797550
1.334000	1.796276
1.334500	1.795639
1.335000	1.794683
1.335500	1.795639
1.336000	1.795957
1.336500	1.797550
1.337000	1.796913
1.337500	1.797232
1.338000	1.797550
1.338500	1.796913
1.339000	1.797232
1.339500	1.796276
1.340000	1.797232
1.340500	1.799143
1.341000	1.799143
1.341500	1.798824
1.342000	1.797550
1.342500	1.797550
1.343000	1.796913
1.343500	1.796276
1.344000	1.796913
1.344500	1.796276
1.345000	1.797550
1.345500	1.797869
1.346000	1.796595
1.346500	1.795320
1.347000	1.794683
1.347500	1.795957
1.348000	1.795957
1.348500	1.796595
1.349000	1.797232
1.349500	1.798187
1.350000	1.797869
1.350500	1.797232
1.351000	1.796913
1.351500	1.796595
1.352000	1.797232
1.352500	1.799461
1.353000	1.799780
1.353500	1.800098
1.354000	1.798506
1.354500	1.796913
1.355000	1.797869
1.355500	1.795957
1.356000	1.797550
1.356500	1.797550
1.357000	1.797550
1.357500	1.798187
1.358000	1.797550
1.358500	1.795957
1.359000	1.795320
1.359500	1.796595
1.360000	1.796913
1.360500	1.797550
1.361000	1.798187
1.361500	1.798506
1.362000	1.798187
1.362500	1.797550
1.363000	1.798187
1.363500	1.797550
1.364000	1.797869
1.364500	1.798506
1.365000	1.800098
1.365500	1.800417
1.366000	1.799780
1.366500	1.797869
1.367000	1.797550
1.367500	1.796595
1.368000	1.796276
1.368500	1.796913
1.369000	1.797550
1.369500	1.797869
1.370000	1.797550
1.370500	1.796595
1.371000	1.794683
1.371500	1.795639
1.372000	1.795957
1.372500	1.796913
1.373000	1.797550
1.373500	1.798506
1.374000	1.798506
1.374500	1.798187
1.375000	1.797232
1.375500	1.796913
1.376000	1.797232
1.376500	1.798824
1.377000	1.799780
1.377500	1.799780
1.378000	1.799143
1.378500	1.797232
1.379000	1.797232
1.379500	1.797550
1.380000	1.796595
1.380500	1.796913
1.381000	1.796595
1.381500	1.798187
1.382000	1.798187
1.382500	1.795957
1.383000	1.794683
1.383500	1.796276
1.384000	1.796276
1.384500	1.796913
1.385000	1.798187
1.385500	1.797869
1.386000	1.798506
1.386500	1.798187
1.387000	1.796595
1.387500	1.796595
1.388000	1.796913
1.388500	1.797869
1.389000	1.799461
1.389500	1.799780
1.390000	1.797869
1.390500	1.798187
1.391000	1.796276
1.391500	1.797232
1.392000	1.795957
1.392500	1.796276
1.393000	1.796276
1.393500	1.796595
1.394000	1.797232
1.394500	1.795957
1.395000	1.794683
1.395500	1.794365
1.396000	1.794683
1.396500	1.796595
1.397000	1.796595
1.397500	1.796595
1.398000	1.797232
1.398500	1.797232
1.399000	1.796595
1.399500	1.795320
1.400000	1.795957
1.400500	1.797232
1.401000	1.798187
1.401500	1.798824
1.402000	1.797232
1.402500	1.796913
1.403000	1.795957
1.403500	1.795002
1.404000	1.795639
1.404500	1.795639
1.405000	1.796913
1.405500	1.797232
1.406000	1.796595
1.406500	1.795002
1.407000	1.793728
1.407500	1.793091
1.408000	1.794365
1.408500	1.795002
1.409000	1.796276
1.409500	1.795957
1.410000	1.796595
1.410500	1.796595
1.411000	1.796276
1.411500	1.795002
1.412000	1.795639
1.412500	1.797550
1.413000	1.797869
1.413500	1.798187
1.414000	1.797869
1.414500	1.796913
1.415000	1.795639
1.415500	1.795002
1.416000	1.795320
1.416500	1.795639
1.417000	1.795320
1.417500	1.796595
1.418000	1.796913
1.418500	1.795639
1.419000	1.793728
1.419500	1.794683
1.420000	1.795320
1.420500	1.795320
1.421000	1.796276
1.421500	1.796913
1.422000	1.796913
1.422500	1.796913
1.423000	1.796913
1.423500	1.795320
1.424000	1.796595
1.424500	1.797232
1.425000	1.799143
1.425500	1.798506
1.426000	1.798187
1.426500	1.797550
1.427000	1.796913
1.427500	1.796276
1.428000	1.796276
1.428500	1.797232
1.429000	1.797232
1.429500	1.797232
1.430000	1.796595
1.430500	1.796913
1.431000	1.794683
1.431500	1.794683
1.432000	1.795002
1.432500	1.796595
1.433000	1.797550
1.433500	1.797232
1.434000	1.797869
1.434500	1.797869
1.435000	1.796595
1.435500	1.796595
1.436000	1.796913
1.436500	1.798824
1.437000	1.798824
1.437500	1.799461
1.438000	1.798824
1.438500	1.798187
1.439000	1.797232
1.439500	1.797232
1.440000	1.795957
1.440500	1.795957
1.441000	1.796595
1.441500	1.797550
1.442000	1.796595
1.442500	1.795639
1.443000	1.795957
1.443500	1.794683
1.444000	1.796276
1.444500	1.796595
1.445000	1.797550
1.445500	1.797550
1.446000	1.798187
1.446500	1.797232
1.447000	1.797550
1.447500	1.796913
1.448000	1.797869
1.448500	1.798506
1.449000	1.800098
1.449500	1.800098
1.450000	1.799461
1.450500	1.797869
1.451000	1.796913
1.451500	1.796595
1.452000	1.796913
1.452500	1.796595
1.453000	1.797869
1.453500	1.798506
1.454000	1.797550
1.454500	1.796276
1.455000	1.795320
1.455500	1.795002
1.456000	1.795639
1.456500	1.796276
1.457000	1.798187
1.457500	1.797232
1.458000	1.797232
1.458500	1.797869
1.459000	1.797232
1.459500	1.796276
1.460000	1.797232
1.460500	1.798187
1.461000	1.798824
1.461500	1.799780
1.462000	1.799461
1.462500	1.798506
1.463000	1.797232
1.463500	1.797232
1.464000	1.796595
1.464500	1.796595
1.465000	1.796913
1.465500	1.797550
1.466000	1.797550
1.466500	1.797869
1.467000	1.795639
1.467500	1.795002
1.468000	1.795639
1.468500	1.796913
1.469000	1.799143
1.469500	1.797869
1.470000	1.798824
1.470500	1.798506
1.471000	1.798824
1.471500	1.797232
1.472000	1.797869
1.472500	1.798506
1.473000	1.799143
1.473500	1.800098
1.474000	1.800098
1.474500	1.798824
1.475000	1.797869
1.475500	1.796595
1.476000	1.797232
1.476500	1.797232
1.477000	1.798187
1.477500	1.797869
1.478000	1.798506
1.478500	1.797550
1.479000	1.795957
1.479500	1.795957
1.480000	1.796595
1.480500	1.796913
1.481000	1.798187
1.481500	1.798187
1.482000	1.799143
1.482500	1.798824
1.483000	1.797550
1.483500	1.798187
1.484000	1.797869
1.484500	1.797869
1.485000	1.798824
1.485500	1.800417
1.486000	1.799780
1.486500	1.799780
1.487000	1.797232
1.487500	1.797550
1.488000	1.797550
1.488500	1.797232
1.489000	1.798187
1.489500	1.799143
1.490000	1.798824
1.490500	1.798506
1.491000	1.796595
1.491500	1.795002
1.492000	1.795639
1.492500	1.797232
1.493000	1.797869
1.493500	1.799143
1.494000	1.798824
1.494500	1.797869
1.495000	1.798824
1.495500	1.797550
1.496000	1.796913
1.496500	1.798187
1.497000	1.799461
1.497500	1.800098
1.498000	1.800736
1.498500	1.798824
1.499000	1.798506
1.499500	1.797232
1.500000	1.796595
1.500500	1.797550
1.501000	1.797550
1.501500	1.798506
1.502000	1.798824
1.502500	1.798187
1.503000	1.796595
1.503500	1.795639
1.504000	1.796276
1.504500	1.796276
1.505000	1.797550
1.505500	1.798187
1.506000	1.799143
1.506500	1.798506
1.507000	1.797869
1.507500	1.797550
1.508000	1.797869
1.508500	1.798187
1.509000	1.799143
1.509500	1.800098
1.510000	1.799780
1.510500	1.799780
1.511000	1.798824
1.511500	1.797232
1.512000	1.796913
1.512500	1.795957
1.513000	1.797232
1.513500	1.797550
1.514000	1.797869
1.514500	1.797550
1.515000	1.796595
1.515500	1.794683
1.516000	1.795320
1.516500	1.795957
1.517000	1.797232
1.517500	1.797550
1.518000	1.797550
1.518500	1.798187
1.519000	1.798187
1.519500	1.797550
1.520000	1.796913
1.520500	1.796276
1.521000	1.798187
1.521500	1.798187
1.522000	1.799780
1.522500	1.799461
1.523000	1.797869
1.523500	1.797232
1.524000	1.796595
1.524500	1.796595
1.525000	1.796595
1.525500	1.796276
1.526000	1.797550
1.526500	1.797232
1.527000	1.796595
1.527500	1.794683
1.528000	1.794683
1.528500	1.794683
1.529000	1.795639
1.529500	1.796913
1.530000	1.797232
1.530500	1.797232
1.531000	1.797550
1.531500	1.796913
1.532000	1.796276
1.532500	1.795957
1.533000	1.797550
1.533500	1.799143
1.534000	1.799143
1.534500	1.798506
1.535000	1.797550
1.535500	1.797232
1.536000	1.794683
1.536500	1.795639
1.537000	1.796595
1.537500	1.797869
1.538000	1.796913
1.538500	1.797232
1.539000	1.796595
1.539500	1.795320
1.540000	1.793728
1.540500	1.794683
1.541000	1.795639
1.541500	1.795957
1.542000	1.796913
1.542500	1.796913
1.543000	1.797550
1.543500	1.797232
1.544000	1.796913
1.544500	1.795957
1.545000	1.796913
1.545500	1.798187
1.546000	1.799780
1.546500	1.798824
1.547000	1.797869
1.547500	1.797232
1.548000	1.796276
1.548500	1.796276
1.549000	1.796595
1.549500	1.796595
1.550000	1.796913
1.550500	1.796913
1.551000	1.796595
1.551500	1.795957
1.552000	1.794683
1.552500	1.794365
1.553000	1.795957
1.553500	1.796913
1.554000	1.797550
1.554500	1.798187
1.555000	1.797550
1.555500	1.797550
1.556000	1.796913
1.556500	1.796595
1.557000	1.796595
1.557500	1.797869
1.558000	1.798824
1.558500	1.800417
1.559000	1.798506
1.559500	1.796913
1.560000	1.796913
1.560500	1.796595
1.561000	1.796913
1.561500	1.797232
1.562000	1.796913
1.562500	1.798506
1.563000	1.797550
1.563500	1.796595
1.564000	1.795957
1.564500	1.795002
1.565000	1.795639
1.565500	1.796595
1.566000	1.797550
1.566500	1.798187
1.567000	1.798506
1.567500	1.797550
1.568000	1.797869
1.568500	1.796913
1.569000	1.796913
1.569500	1.798506
1.570000	1.798506
1.570500	1.799461
1.571000	1.798824
1.571500	1.797550
1.572000	1.796913
1.572500	1.796595
1.573000	1.795957
1.573500	1.796913
1.574000	1.796276
1.574500	1.797232
1.575000	1.797232
1.575500	1.796276
1.576000	1.795002
1.576500	1.795002
1.577000	1.795639
1.577500	1.796913
1.578000	1.797232
1.578500	1.797869
1.579000	1.797550
1.579500	1.797869
1.580000	1.796913
1.580500	1.796595
1.581000	1.796595
1.581500	1.798824
1.582000	1.799780
1.582500	1.800098
1.583000	1.798506
1.583500	1.797232
1.584000	1.797550
1.584500	1.796595
1.585000	1.796276
1.585500	1.797232
1.586000	1.796913
1.586500	1.798187
1.587000	1.797550
1.587500	1.796276
1.588000	1.795639
1.588500	1.795320
1.589000	1.795957
1.589500	1.797232
1.590000	1.797232
1.590500	1.798187
1.591000	1.798187
1.591500	1.798824
1.592000	1.796913
1.592500	1.797232
1.593000	1.797550
1.593500	1.798187
1.594000	1.800417
1.594500	1.798824
1.595000	1.799461
1.595500	1.797550
1.596000	1.797232
1.596500	1.796913
1.597000	1.796595
1.597500	1.796595
1.598000	1.797232
1.598500	1.797550
1.599000	1.797232
1.599500	1.796913
1.600000	1.796276
1.600500	1.795639
1.601000	1.795639
1.601500	1.796913
1.602000	1.797550
1.602500	1.798187
1.603000	1.798824
1.603500	1.797869
1.604000	1.797869
1.604500	1.796595
1.605000	1.797550
1.605500	1.798187
1.606000	1.799780
1.606500	1.799461
1.607000	1.799780
1.607500	1.798187
1.608000	1.797550
1.608500	1.797232
1.609000	1.796913
1.609500	1.796913
1.610000	1.796913
1.610500	1.798187
1.611000	1.797869
1.611500	1.797232
1.612000	1.796276
1.612500	1.795320
1.613000	1.796595
1.613500	1.796913
1.614000	1.797550
1.614500	1.798506
1.615000	1.798187
1.615500	1.798187
1.616000	1.797550
1.616500	1.796913
1.617000	1.797550
1.617500	1.799143
1.618000	1.799143
1.618500	1.800417
1.619000	1.799143
1.619500	1.798506
1.620000	1.798187
1.620500	1.796913
1.621000	1.796913
1.621500	1.797550
1.622000	1.797869
1.622500	1.798506
1.623000	1.797550
1.623500	1.796595
1.624000	1.796276
1.624500	1.795320
1.625000	1.797550
1.625500	1.798506
1.626000	1.799143
1.626500	1.799461
1.627000	1.798824
1.627500	1.799143
1.628000	1.798187
1.628500	1.797869
1.629000	1.798506
1.629500	1.800098
1.630000	1.800736
1.630500	1.799461
1.631000	1.799143
1.631500	1.797869
1.632000	1.797550
1.632500	1.797232
1.633000	1.797550
1.633500	1.797869
1.634000	1.797550
1.634500	1.798187
1.635000	1.797232
1.635500	1.795957
1.636000	1.795002
1.636500	1.796595
1.637000	1.797232
1.637500	1.798824
1.638000	1.798824
1.638500	1.797869
1.639000	1.798506
1.639500	1.797550
1.640000	1.797869
1.640500	1.797550
1.641000	1.799461
1.641500	1.799143
1.642000	1.799461
1.642500	1.798506
1.643000	1.797550
1.643500	1.797550
1.644000	1.796913
1.644500	1.795957
1.645000	1.796913
1.645500	1.797869
1.646000	1.797869
1.646500	1.797232
1.647000	1.795957
1.647500	1.795320
1.648000	1.795320
1.648500	1.796913
1.649000	1.797232
1.649500	1.797232
1.650000	1.797869
1.650500	1.797232
1.651000	1.796913
1.651500	1.796913
1.652000	1.796913
1.652500	1.797869
1.653000	1.799461
1.653500	1.800098
1.654000	1.799143
1.654500	1.797550
1.655000	1.796595
1.655500	1.796913
1.656000	1.796595
1.656500	1.796595
1.657000	1.798824
1.657500	1.797869
1.658000	1.796913
1.658500	1.796595
1.659000	1.794683
1.659500	1.795002
1.660000	1.796276
1.660500	1.797232
1.661000	1.797232
1.661500	1.797869
1.662000	1.797232
1.662500	1.797869
1.663000	1.797232
1.663500	1.796595
1.664000	1.797232
1.664500	1.798187
1.665000	1.799461
1.665500	1.798506
1.666000	1.798187
1.666500	1.797232
1.667000	1.796913
1.667500	1.795320
1.668000	1.796276
1.668500	1.797232
1.669000	1.797550
1.669500	1.798824
1.670000	1.797232
1.670500	1.795639
1.671000	1.795320
1.671500	1.795957
1.672000	1.796595
1.672500	1.796913
1.673000	1.798187
1.673500	1.797869
1.674000	1.797869
1.674500	1.797232
1.675000	1.797232
1.675500	1.796276
1.676000	1.798187
1.676500	1.798824
1.677000	1.799780
1.677500	1.799780
1.678000	1.797869
1.678500	1.797232
1.679000	1.796595
1.679500	1.796595
1.680000	1.795957
1.680500	1.797232
1.681000	1.797869
1.681500	1.797232
1.682000	1.796595
1.682500	1.794683
1.683000	1.794683
1.683500	1.795957
1.684000	1.796276
1.684500	1.797869
1.685000	1.797232
1.685500	1.797550
1.686000	1.798187
1.686500	1.797550
1.687000	1.796595
1.687500	1.796595
1.688000	1.797869
1.688500	1.798824
1.689000	1.799780
1.689500	1.800098
1.690000	1.797550
1.690500	1.797232
1.691000	1.796913
1.691500	1.796913
1.692000	1.796595
1.692500	1.797232
1.693000	1.797550
1.693500	1.796595
1.694000	1.795957
1.694500	1.794365
1.695000	1.795002
1.695500	1.796276
1.696000	1.796913
1.696500	1.797232
1.697000	1.797869
1.697500	1.797550
1.698000	1.797869
1.698500	1.797232
1.699000	1.796595
1.699500	1.798506
1.700000	1.799143
1.700500	1.799780
1.701000	1.799143
1.701500	1.797550
1.702000	1.796913
1.702500	1.797232
1.703000	1.796595
1.703500	1.796913
1.704000	1.796595
1.704500	1.798187
1.705000	1.797869
1.705500	1.795957
1.706000	1.795320
1.706500	1.795320
1.707000	1.796595
1.707500	1.796595
1.708000	1.796913
1.708500	1.798187
1.709000	1.798824
1.709500	1.797869
1.710000	1.797869
1.710500	1.796595
1.711000	1.797869
1.711500	1.799143
1.712000	1.800417
1.712500	1.798506
1.713000	1.798824
1.713500	1.797869
1.714000	1.797869
1.714500	1.796913
1.715000	1.796595
1.715500	1.798187
1.716000	1.797550
1.716500	1.798506
1.717000	1.797232
1.717500	1.796276
1.718000	1.795957
1.718500	1.795639
1.719000	1.797550
1.719500	1.798506
1.720000	1.798824
1.720500	1.798506
1.721000	1.798506
1.721500	1.797550
1.722000	1.796913
1.722500	1.797869
1.723000	1.797869
1.723500	1.799461
1.724000	1.800098
1.724500	1.799143
1.725000	1.797232
1.725500	1.798187
1.726000	1.796913
1.726500	1.797232
1.727000	1.796913
1.727500	1.797869
1.728000	1.797869
1.728500	1.798187
1.729000	1.796913
1.729500	1.795320
1.730000	1.795320
1.730500	1.796913
1.731000	1.797869
1.731500	1.798187
1.732000	1.798187
1.732500	1.797550
1.733000	1.798187
1.733500	1.797232
1.734000	1.796913
1.734500	1.796913
1.735000	1.798506
1.735500	1.800098
1.736000	1.799461
1.736500	1.798506
1.737000	1.797869
1.737500	1.797550
1.738000	1.796913
1.738500	1.796913
1.739000	1.797232
1.739500	1.797550
1.740000	1.798187
1.740500	1.796913
1.741000	1.796276
1.741500	1.795320
1.742000	1.794683
1.742500	1.796276
1.743000	1.797550
1.743500	1.797869
1.744000	1.797869
1.744500	1.798187
1.745000	1.798187
1.745500	1.796913
1.746000	1.797232
1.746500	1.798506
1.747000	1.799780
1.747500	1.800736
1.748000	1.799143
1.748500	1.798824
1.749000	1.797550
1.749500	1.797550
1.750000	1.796913
1.750500	1.796913
1.751000	1.797869
1.751500	1.797869
1.752000	1.798187
1.752500	1.796913
1.753000	1.795639
1.753500	1.795002
1.754000	1.796276
1.754500	1.797550
1.755000	1.796913
1.755500	1.797550
1.756000	1.798506
1.756500	1.797550
1.757000	1.797550
1.757500	1.796913
1.758000	1.797550
1.758500	1.798824
1.759000	1.799780
1.759500	1.799461
1.760000	1.798824
1.760500	1.797869
1.761000	1.796913
1.761500	1.796595
1.762000	1.796595
1.762500	1.796913
1.763000	1.797550
1.763500	1.797869
1.764000	1.797550
1.764500	1.795957
1.765000	1.794683
1.765500	1.795639
1.766000	1.796913
1.766500	1.797232
1.767000	1.797869
1.767500	1.798187
1.768000	1.797869
1.768500	1.797550
1.769000	1.797869
1.769500	1.797232
1.770000	1.797550
1.770500	1.799143
1.771000	1.800098
1.771500	1.799461
1.772000	1.797869
1.772500	1.797550
1.773000	1.796913
1.773500	1.796276
1.774000	1.796595
1.774500	1.798187
1.775000	1.797232
1.775500	1.798506
1.776000	1.797550
1.776500	1.796276
1.777000	1.794365
1.777500	1.794683
1.778000	1.796276
1.778500	1.796913
1.779000	1.797232
1.779500	1.798506
1.780000	1.797869
1.780500	1.797232
1.781000	1.796913
1.781500	1.796595
1.782000	1.796913
1.782500	1.799143
1.783000	1.799461
1.783500	1.798824
1.784000	1.798824
1.784500	1.796913
1.785000	1.796913
1.785500	1.796913
1.786000	1.796913
1.786500	1.797869
1.787000	1.798187
1.787500	1.797869
1.788000	1.795957
1.788500	1.795957
1.789000	1.794046
1.789500	1.795639
1.790000	1.796913
1.790500	1.797232
1.791000	1.798506
1.791500	1.798506
1.792000	1.798187
1.792500	1.798506
1.793000	1.797232
1.793500	1.797550
1.794000	1.798824
1.794500	1.800098
1.795000	1.800098
1.795500	1.799143
1.796000	1.797232
1.796500	1.797232
1.797000	1.796913
1.797500	1.797232
1.798000	1.797232
1.798500	1.798187
1.799000	1.798187
1.799500	1.796913
1.800000	1.796913
1.800500	1.795320
1.801000	1.795320
1.801500	1.796276
1.802000	1.796276
1.802500	1.798187
1.803000	1.798506
1.803500	1.797550
1.804000	1.798187
1.804500	1.797550
1.805000	1.797550
1.805500	1.797869
1.806000	1.798187
1.806500	1.799780
1.807000	1.799780
1.807500	1.798506
1.808000	1.797550
1.808500	1.797550
1.809000	1.796595
1.809500	1.796276
1.810000	1.797232
1.810500	1.797550
1.811000	1.798187
1.811500	1.797232
1.812000	1.796595
1.812500	1.795002
1.813000	1.795320
1.813500	1.795957
1.814000	1.797550
1.814500	1.796913
1.815000	1.798187
1.815500	1.797869
1.816000	1.797869
1.816500	1.797232
1.817000	1.796276
1.817500	1.797232
1.818000	1.799461
1.818500	1.799461
1.819000	1.800098
1.819500	1.798506
1.820000	1.797869
1.820500	1.797232
1.821000	1.796276
1.821500	1.795957
1.822000	1.796276
1.822500	1.796913
1.823000	1.797232
1.823500	1.796913
1.824000	1.797232
1.824500	1.794365
1.825000	1.794683
1.825500	1.795639
1.826000	1.796913
1.826500	1.797550
1.827000	1.797232
1.827500	1.798187
1.828000	1.797232
1.828500	1.797550
1.829000	1.796595
1.829500	1.796913
1.830000	1.798187
1.830500	1.799461
1.831000	1.799780
1.831500	1.799143
1.832000	1.798187
1.832500	1.796913
1.833000	1.796595
1.833500	1.796595
1.834000	1.796595
1.834500	1.797550
1.835000	1.798187
1.835500	1.797869
1.836000	1.796276
1.836500	1.795320
1.837000	1.795002
1.837500	1.795639
1.838000	1.796913
1.838500	1.797869
1.839000	1.798187
1.839500	1.798187
1.840000	1.797232
1.840500	1.796595
1.841000	1.796913
1.841500	1.797232
1.842000	1.798506
1.842500	1.799143
1.843000	1.800098
1.843500	1.798506
1.844000	1.797550
1.844500	1.796595
1.845000	1.796913
1.845500	1.796276
1.846000	1.796913
1.846500	1.797869
1.847000	1.797550
1.847500	1.797550
1.848000	1.795320
1.848500	1.794365
1.849000	1.794365
1.849500	1.795957
1.850000	1.796595
1.850500	1.796913
1.851000	1.797869
1.851500	1.797550
1.852000	1.796913
1.852500	1.796913
1.853000	1.795957
1.853500	1.796595
1.854000	1.797869
1.854500	1.799461
1.855000	1.799143
1.855500	1.797869
1.856000	1.796276
1.856500	1.796276
1.857000	1.796276
1.857500	1.795639
1.858000	1.796276
1.858500	1.796913
1.859000	1.797550
1.859500	1.795639
1.860000	1.795320
1.860500	1.794046
1.861000	1.794683
1.861500	1.795639
1.862000	1.796595
1.862500	1.796595
1.863000	1.796913
1.863500	1.797232
1.864000	1.797232
1.864500	1.796276
1.865000	1.795957
1.865500	1.796913
1.866000	1.797869
1.866500	1.798506
1.867000	1.798506
1.867500	1.797232
1.868000	1.796913
1.868500	1.795639
1.869000	1.796276
1.869500	1.795320
1.870000	1.796595
1.870500	1.796276
1.871000	1.797232
1.871500	1.795639
1.872000	1.793728
1.872500	1.793728
1.873000	1.794365
1.873500	1.796595
1.874000	1.795957
1.874500	1.796276
1.875000	1.796913
1.875500	1.796276
1.876000	1.796276
1.876500	1.796276
1.877000	1.795002
1.877500	1.797232
1.878000	1.798187
1.878500	1.798824
1.879000	1.797550
1.879500	1.796913
1.880000	1.795957
1.880500	1.795957
1.881000	1.795002
1.881500	1.795957
1.882000	1.795957
1.882500	1.796276
1.883000	1.796595
1.883500	1.794683
1.884000	1.794365
1.884500	1.794365
1.885000	1.794365
1.885500	1.795639
1.886000	1.796595
1.886500	1.796913
1.887000	1.796913
1.887500	1.797232
1.888000	1.796913
1.888500	1.795002
1.889000	1.796595
1.889500	1.798506
1.890000	1.799461
1.890500	1.798824
1.891000	1.797550
1.891500	1.797232
1.892000	1.796276
1.892500	1.795639
1.893000	1.795002
1.893500	1.796595
1.894000	1.796913
1.894500	1.797550
1.895000	1.795957
1.895500	1.794683
1.896000	1.794046
1.896500	1.795320
1.897000	1.796276
1.897500	1.796595
1.898000	1.797869
1.898500	1.797869
1.899000	1.797232
1.899500	1.796913
1.900000	1.795957
1.900500	1.796913
1.901000	1.797869
1.901500	1.798506
1.902000	1.798824
1.902500	1.797869
1.903000	1.797869
1.903500	1.796595
1.904000	1.796276
1.904500	1.796276
1.905000	1.796595
1.905500	1.797232
1.906000	1.797232
1.906500	1.796913
1.907000	1.796276
1.907500	1.794683
1.908000	1.795002
1.908500	1.795639
1.909000	1.796595
1.909500	1.796913
1.910000	1.797869
1.910500	1.796913
1.911000	1.797232
1.911500	1.796595
1.912000	1.796276
1.912500	1.796595
1.913000	1.798187
1.913500	1.800417
1.914000	1.798506
1.914500	1.797550
1.915000	1.796913
1.915500	1.796276
1.916000	1.795639
1.916500	1.796595
1.917000	1.796913
1.917500	1.797232
1.918000	1.796913
1.918500	1.795639
1.919000	1.794683
1.919500	1.793728
1.920000	1.794365
1.920500	1.796276
1.921000	1.796276
1.921500	1.797550
1.922000	1.797232
1.922500	1.796913
1.923000	1.797232
1.923500	1.795957
1.924000	1.796913
1.924500	1.797550
1.925000	1.798506
1.925500	1.799461
1.926000	1.799143
1.926500	1.796276
1.927000	1.796276
1.927500	1.796595
1.928000	1.795320
1.928500	1.796276
1.929000	1.796595
1.929500	1.796913
1.930000	1.796276
1.930500	1.796276
1.931000	1.794365
1.931500	1.794365
1.932000	1.795639
1.932500	1.796913
1.933000	1.796595
1.933500	1.796595
1.934000	1.797550
1.934500	1.797550
1.935000	1.796913
1.935500	1.796276
1.936000	1.796595
1.936500	1.798506
1.937000	1.799143
1.937500	1.799461
1.938000	1.798506
1.938500	1.798187
1.939000	1.796913
1.939500	1.795639
1.940000	1.796276
1.940500	1.795957
1.941000	1.796913
1.941500	1.796913
1.942000	1.796913
1.942500	1.796595
1.943000	1.794683
1.943500	1.794365
1.944000	1.795957
1.944500	1.796913
1.945000	1.797869
1.945500	1.797550
1.946000	1.797550
1.946500	1.797550
1.947000	1.796913
1.947500	1.797232
1.948000	1.797550
1.948500	1.799143
1.949000	1.800417
1.949500	1.800098
1.950000	1.798824
1.950500	1.798187
1.951000	1.797232
1.951500	1.796595
1.952000	1.796913
1.952500	1.797232
1.953000	1.797550
1.953500	1.798187
1.954000	1.797232
1.954500	1.795639
1.955000	1.794365
1.955500	1.795002
1.956000	1.796276
1.956500	1.796913
1.957000	1.797869
1.957500	1.796913
1.958000	1.798187
1.958500	1.798187
1.959000	1.796595
1.959500	1.796913
1.960000	1.797232
1.960500	1.798187
1.961000	1.799143
1.961500	1.799461
1.962000	1.798187
1.962500	1.797232
1.963000	1.796595
1.963500	1.796595
1.964000	1.796276
1.964500	1.796913
1.965000	1.797550
1.965500	1.798187
1.966000	1.796913
1.966500	1.795639
1.967000	1.795002
1.967500	1.794046
1.968000	1.795639
1.968500	1.797550
1.969000	1.797550
1.969500	1.798506
1.970000	1.797869
1.970500	1.796913
1.971000	1.796595
1.971500	1.796276
1.972000	1.796913
1.972500	1.798824
1.973000	1.799461
1.973500	1.798506
1.974000	1.797550
1.974500	1.796913
1.975000	1.796276
1.975500	1.795639
1.976000	1.796276
1.976500	1.796276
1.977000	1.796595
1.977500	1.796913
1.978000	1.796595
1.978500	1.794683
1.979000	1.794683
1.979500	1.795320
1.980000	1.795639
1.980500	1.796913
1.981000	1.796595
1.981500	1.797232
1.982000	1.797232
1.982500	1.796595
1.983000	1.796913
1.983500	1.796276
1.984000	1.797869
1.984500	1.798824
1.985000	1.799143
1.985500	1.799143
1.986000	1.797232
1.986500	1.796913
1.987000	1.796276
1.987500	1.796276
1.988000	1.796276
1.988500	1.796276
1.989000	1.797232
1.989500	1.797869
1.990000	1.796276
1.990500	1.794683
1.991000	1.794683
1.991500	1.794683
1.992000	1.795639
1.992500	1.796276
1.993000	1.796913
1.993500	1.796913
1.994000	1.797550
1.994500	1.796913
1.995000	1.796913
1.995500	1.796276
1.996000	1.797869
1.996500	1.798506
1.997000	1.800098
1.997500	1.798187
1.998000	1.796913
1.998500	1.796595
1.999000	1.796276
1.999500	1.795957
2.000000	1.796595
2.000500	1.796913
2.001000	1.796913
2.001500	1.796913
2.002000	1.796276
2.002500	1.794683
2.003000	1.795002
2.003500	1.795957
2.004000	1.795957
2.004500	1.797550
2.005000	1.797232
2.005500	1.797232
2.006000	1.797869
2.006500	1.797550
2.007000	1.796595
2.007500	1.796276
2.008000	1.798824
2.008500	1.799780
2.009000	1.800417
2.009500	1.798824
2.010000	1.798506
2.010500	1.797232
2.011000	1.796595
2.011500	1.796595
2.012000	1.796913
2.012500	1.798187
2.013000	1.798187
2.013500	1.797232
2.014000	1.796595
2.014500	1.794046
2.015000	1.795002
2.015500	1.796913
2.016000	1.797232
2.016500	1.797550
2.017000	1.798824
2.017500	1.797869
2.018000	1.798187
2.018500	1.798187
2.019000	1.796595
2.019500	1.797550
2.020000	1.798824
2.020500	1.800736
2.021000	1.799461
2.021500	1.798824
2.022000	1.798506
2.022500	1.797869
2.023000	1.796276
2.023500	1.798187
2.024000	1.796913
2.024500	1.797869
2.025000	1.798187
2.025500	1.797869
2.026000	1.796595
2.026500	1.795002
2.027000	1.796595
2.027500	1.797232
2.028000	1.798824
2.028500	1.797869
2.029000	1.798824
2.029500	1.799143
2.030000	1.797550
2.030500	1.797869
2.031000	1.797550
2.031500	1.797869
2.032000	1.799780
2.032500	1.800736
2.033000	1.800417
2.033500	1.798824
2.034000	1.798824
2.034500	1.797869
2.035000	1.796913
2.035500	1.796913
2.036000	1.796913
2.036500	1.798187
2.037000	1.798187
2.037500	1.798187
2.038000	1.796913
2.038500	1.795957
2.039000	1.795002
2.039500	1.795957
2.040000	1.797869
2.040500	1.798506
2.041000	1.798506
2.041500	1.798506
2.042000	1.797550
2.042500	1.797550
2.043000	1.796913
2.043500	1.798187
2.044000	1.799780
2.044500	1.800736
2.045000	1.800417
2.045500	1.798506
2.046000	1.796913
2.046500	1.797232
2.047000	1.796595
2.047500	1.797232
2.048000	1.797232
2.048500	1.797550
2.049000	1.797550
2.049500	1.797232
2.050000	1.795639
2.050500	1.794683
2.051000	1.794683
2.051500	1.796595
2.052000	1.798187
2.052500	1.797232
2.053000	1.797232
2.053500	1.798824
2.054000	1.797869
2.054500	1.797232
2.055000	1.796913
2.055500	1.798506
2.056000	1.798824
2.056500	1.800417
2.057000	1.799143
2.057500	1.798506
2.058000	1.797550
2.058500	1.796913
2.059000	1.796913
2.059500	1.795957
2.060000	1.797869
2.060500	1.797232
2.061000	1.796913
2.061500	1.796913
2.062000	1.794683
2.062500	1.795639
2.063000	1.795957
2.063500	1.795957
2.064000	1.797232
2.064500	1.797550
2.065000	1.797869
2.065500	1.797550
2.066000	1.798187
2.066500	1.796595
2.067000	1.796913
2.067500	1.797550
2.068000	1.799461
2.068500	1.800098
2.069000	1.798824
2.069500	1.797550
2.070000	1.797550
2.070500	1.796595
2.071000	1.796595
2.071500	1.796595
2.072000	1.796913
2.072500	1.797550
2.073000	1.797232
2.073500	1.796595
2.074000	1.794683
2.074500	1.795320
2.075000	1.795320
2.075500	1.797550
2.076000	1.797232
2.076500	1.797550
2.077000	1.798187
2.077500	1.797869
2.078000	1.796276
2.078500	1.796276
2.079000	1.797232
2.079500	1.797869
2.080000	1.799461
2.080500	1.798506
2.081000	1.798187
2.081500	1.796913
2.082000	1.796595
2.082500	1.796913
2.083000	1.795639
2.083500	1.796913
2.084000	1.797550
2.084500	1.797869
2.085000	1.795639
2.085500	1.794683
2.086000	1.794365
2.086500	1.795002
2.087000	1.796595
2.087500	1.797232
2.088000	1.796913
2.088500	1.797869
2.089000	1.797869
2.089500	1.797232
2.090000	1.795639
2.090500	1.796595
2.091000	1.797550
2.091500	1.799461
2.092000	1.799461
2.092500	1.798187
2.093000	1.797550
2.093500	1.797232
2.094000	1.796913
2.094500	1.796276
2.095000	1.795957
2.095500	1.797232
2.096000	1.796595
2.096500	1.796913
2.097000	1.796276
2.097500	1.794683
2.098000	1.794365
2.098500	1.794365
2.099000	1.796595
2.099500	1.796913
2.100000	1.797232
2.100500	1.797869
2.101000	1.796913
2.101500	1.796913
2.102000	1.795639
2.102500	1.796595
2.103000	1.797550
2.103500	1.799143
2.104000	1.799461
2.104500	1.798824
2.105000	1.797550
2.105500	1.796276
2.106000	1.795957
2.106500	1.795002
2.107000	1.796276
2.107500	1.796595
2.108000	1.796913
2.108500	1.796276
2.109000	1.795002
2.109500	1.794046
2.110000	1.795002
2.110500	1.795639
2.111000	1.796595
2.111500	1.797232
2.112000	1.797232
2.112500	1.797869
2.113000	1.797550
2.113500	1.796276
2.114000	1.795957
2.114500	1.797869
2.115000	1.799143
2.115500	1.800098
2.116000	1.799461
2.116500	1.798506
2.117000	1.796913
2.117500	1.795957
2.118000	1.796913
2.118500	1.796276
2.119000	1.796595
2.119500	1.797232
2.120000	1.797869
2.120500	1.795957
2.121000	1.794683
2.121500	1.795320
2.122000	1.795320
2.122500	1.796595
2.123000	1.797550
2.123500	1.798187
2.124000	1.798506
2.124500	1.797869
2.125000	1.797232
2.125500	1.797550
2.126000	1.797232
2.126500	1.799461
2.127000	1.799780
2.127500	1.799780
2.128000	1.797869
2.128500	1.797232
2.129000	1.796913
2.129500	1.796276
2.130000	1.795957
2.130500	1.797232
2.131000	1.797550
2.131500	1.798187
2.132000	1.796913
2.132500	1.796276
2.133000	1.794683
2.133500	1.795320
2.134000	1.796276
2.134500	1.796595
2.135000	1.797550
2.135500	1.797550
2.136000	1.797550
2.136500	1.797550
2.137000	1.796913
2.137500	1.796913
2.138000	1.798187
2.138500	1.799461
2.139000	1.800098
2.139500	1.798824
2.140000	1.797550
2.140500	1.796595
2.141000	1.796595
2.141500	1.796595
2.142000	1.795957
2.142500	1.797550
2.143000	1.797869
2.143500	1.796595
2.144000	1.796595
2.144500	1.794683
2.145000	1.794365
2.145500	1.794365
2.146000	1.796276
2.146500	1.796913
2.147000	1.797232
2.147500	1.798506
2.148000	1.797232
2.148500	1.797232
2.149000	1.797232
2.149500	1.797232
2.150000	1.797232
2.150500	1.798824
2.151000	1.798824
2.151500	1.797869
2.152000	1.797869
2.152500	1.796276
2.153000	1.795957
2.153500	1.795957
2.154000	1.796276
2.154500	1.796595
2.155000	1.797232
2.155500	1.796276
2.156000	1.795957
2.156500	1.794365
2.157000	1.794365
2.157500	1.795320
2.158000	1.796276
2.158500	1.796913
2.159000	1.797550
2.159500	1.797232
2.160000	1.796913
2.160500	1.796276
2.161000	1.796276
2.161500	1.796276
2.162000	1.798187
2.162500	1.798506
2.163000	1.799143
2.163500	1.798506
2.164000	1.796913
2.164500	1.796276
2.165000	1.796276
2.165500	1.795957
2.166000	1.795639
2.166500	1.796276
2.167000	1.796913
2.167500	1.796595
2.168000	1.795639
2.168500	1.794046
2.169000	1.794683
2.169500	1.795002
2.170000	1.795957
2.170500	1.796276
2.171000	1.796913
2.171500	1.797869
2.172000	1.796913
2.172500	1.796276
2.173000	1.795320
2.173500	1.796595
2.174000	1.796913
2.174500	1.798824
2.175000	1.798506
2.175500	1.797550
2.176000	1.795957
2.176500	1.796276
2.177000	1.795002
2.177500	1.794683
2.178000	1.795320
2.178500	1.795957
2.179000	1.795957
2.179500	1.796276
2.180000	1.794683
2.180500	1.792454
2.181000	1.793091
2.181500	1.793728
2.182000	1.795002
2.182500	1.795639
2.183000	1.796913
2.183500	1.796595
2.184000	1.796595
2.184500	1.795320
2.185000	1.794683
2.185500	1.795957
2.186000	1.797869
2.186500	1.797869
2.187000	1.797869
2.187500	1.797232
2.188000	1.796595
2.188500	1.795002
2.189000	1.794683
2.189500	1.794683
2.190000	1.795002
2.190500	1.795639
2.191000	1.795957
2.191500	1.795639
2.192000	1.794683
2.192500	1.794046
2.193000	1.793091
2.193500	1.794365
2.194000	1.795002
2.194500	1.795957
2.195000	1.796913
2.195500	1.796913
2.196000	1.796276
2.196500	1.795639
2.197000	1.795639
2.197500	1.795957
2.198000	1.797550
2.198500	1.798187
2.199000	1.797869
2.199500	1.797232
2.200000	1.795639
2.200500	1.796276
2.201000	1.795957
2.201500	1.795002
2.202000	1.796276
2.202500	1.796595
2.203000	1.796913
2.203500	1.795639
2.204000	1.795639
2.204500	1.794046
2.205000	1.793728
2.205500	1.795320
2.206000	1.795639
2.206500	1.796595
2.207000	1.797232
2.207500	1.797550
2.208000	1.796913
2.208500	1.795957
2.209000	1.796595
2.209500	1.796276
2.210000	1.798506
2.210500	1.798824
2.211000	1.798824
2.211500	1.797550
2.212000	1.796913
2.212500	1.796913
2.213000	1.796276
2.213500	1.795639
2.214000	1.796913
2.214500	1.796913
2.215000	1.797869
2.215500	1.796595
2.216000	1.795639
2.216500	1.795002
2.217000	1.795320
2.217500	1.796276
2.218000	1.796913
2.218500	1.797869
2.219000	1.797869
2.219500	1.797869
2.220000	1.797550
2.220500	1.796913
2.221000	1.796595
2.221500	1.798187
2.222000	1.799143
2.222500	1.799780
2.223000	1.798824
2.223500	1.797869
2.224000	1.797869
2.224500	1.796913
2.225000	1.796276
2.225500	1.796913
2.226000	1.797550
2.226500	1.797232
2.227000	1.797869
2.227500	1.796913
2.228000	1.796276
2.228500	1.795002
2.229000	1.796276
2.229500	1.796595
2.230000	1.798506
2.230500	1.798187
2.231000	1.798506
2.231500	1.798506
2.232000	1.797550
2.232500	1.796595
2.233000	1.797869
2.233500	1.798824
2.234000	1.800417
2.234500	1.800417
2.235000	1.799143
2.235500	1.798824
2.236000	1.797232
2.236500	1.797232
2.237000	1.796913
2.237500	1.797232
2.238000	1.797550
2.238500	1.798506
2.239000	1.797550
2.239500	1.796913
2.240000	1.794683
2.240500	1.794683
2.241000	1.796595
2.241500	1.796913
2.242000	1.798506
2.242500	1.798506
2.243000	1.797550
2.243500	1.796595
2.244000	1.802647
2.244500	1.797232
2.245000	1.797869
2.245500	1.799143
2.246000	1.799461
2.246500	1.800098
2.247000	1.799143
2.247500	1.798187
2.248000	1.797232
2.248500	1.796595
2.249000	1.797232
2.249500	1.797232
2.250000	1.798187
2.250500	1.798187
2.251000	1.796913
2.251500	1.795957
2.252000	1.795320
2.252500	1.795002
2.253000	1.796595
2.253500	1.797550
2.254000	1.797869
2.254500	1.797869
2.255000	1.797550
2.255500	1.797550
2.256000	1.797232
2.256500	1.796913
2.257000	1.797869
2.257500	1.799461
2.258000	1.799143
2.258500	1.798824
2.259000	1.796595
2.259500	1.797550
2.260000	1.795957
2.260500	1.795957
2.261000	1.797232
2.261500	1.797550
2.262000	1.797869
2.262500	1.797550
2.263000	1.796595
2.263500	1.795320
2.264000	1.795320
2.264500	1.795957
2.265000	1.796913
2.265500	1.796913
2.266000	1.797869
2.266500	1.796913
2.267000	1.797232
2.267500	1.795957
2.268000	1.796276
2.268500	1.796595
2.269000	1.798187
2.269500	1.798824
2.270000	1.797869
2.270500	1.797232
2.271000	1.797232
2.271500	1.795957
2.272000	1.795639
2.272500	1.795639
2.273000	1.796913
2.273500	1.796276
2.274000	1.796913
2.274500	1.795957
2.275000	1.794683
2.275500	1.793728
2.276000	1.795320
2.276500	1.795639
2.277000	1.797232
2.277500	1.797232
2.278000	1.797869
2.278500	1.797232
2.279000	1.797232
2.279500	1.796913
2.280000	1.796595
2.280500	1.797550
2.281000	1.798187
2.281500	1.798824
2.282000	1.798506
2.282500	1.798506
2.283000	1.796913
2.283500	1.796913
2.284000	1.796913
2.284500	1.795957
2.285000	1.796913
2.285500	1.797869
2.286000	1.796913
2.286500	1.796595
2.287000	1.795957
2.287500	1.794683
2.288000	1.795002
2.288500	1.796595
2.289000	1.797550
2.289500	1.798187
2.290000	1.798506
2.290500	1.797869
2.291000	1.797869
2.291500	1.796913
2.292000	1.796913
2.292500	1.796913
2.293000	1.799143
2.293500	1.799461
2.294000	1.799780
2.294500	1.798506
2.295000	1.797550
2.295500	1.797550
2.296000	1.797232
2.296500	1.796913
2.297000	1.797232
2.297500	1.797869
2.298000	1.797550
2.298500	1.797550
2.299000	1.795639
2.299500	1.795320
2.300000	1.796276
2.300500	1.796595
2.301000	1.798506
2.301500	1.798506
2.302000	1.798187
2.302500	1.798187
2.303000	1.797869
2.303500	1.797232
2.304000	1.797232
2.304500	1.798187
2.305000	1.799780
2.305500	1.802010
2.306000	1.799780
2.306500	1.798506
2.307000	1.798187
2.307500	1.797869
2.308000	1.796913
2.308500	1.798187
2.309000	1.797869
2.309500	1.798187
2.310000	1.794365
2.310500	1.797869
2.311000	1.796276
2.311500	1.795002
2.312000	1.796595
2.312500	1.797232
2.313000	1.798187
2.313500	1.798824
2.314000	1.799461
2.314500	1.799461
2.315000	1.798824
2.315500	1.798187
2.316000	1.798506
2.316500	1.799461
2.317000	1.800417
2.317500	1.801054
2.318000	1.800736
2.318500	1.799143
2.319000	1.798187
2.319500	1.798506
2.320000	1.797550
2.320500	1.797869
2.321000	1.799143
2.321500	1.799461
2.322000	1.798506
2.322500	1.797869
2.323000	1.796276
2.323500	1.796276
2.324000	1.796913
2.324500	1.797869
2.325000	1.799143
2.325500	1.799461
2.326000	1.799143
2.326500	1.800098
2.327000	1.799461
2.327500	1.798824
2.328000	1.798824
2.328500	1.799143
2.329000	1.800736
2.329500	1.802010
2.330000	1.801054
2.330500	1.799143
2.331000	1.798824
2.331500	1.797869
2.332000	1.798187
2.332500	1.798187
2.333000	1.798506
2.333500	1.798506
2.334000	1.799143
2.334500	1.798187
2.335000	1.797232
2.335500	1.796595
2.336000	1.796913
2.336500	1.797232
2.337000	1.799461
2.337500	1.799461
2.338000	1.799461
2.338500	1.799780
2.339000	1.798506
2.339500	1.798187
2.340000	1.798187
2.340500	1.799780
2.341000	1.800098
2.341500	1.800736
2.342000	1.799780
2.342500	1.798506
2.343000	1.798187
2.343500	1.799143
2.344000	1.796913
2.344500	1.798187
2.345000	1.798506
2.345500	1.799143
2.346000	1.799143
2.346500	1.797869
2.347000	1.796276
2.347500	1.796913
2.348000	1.796595
2.348500	1.798187
2.349000	1.798506
2.349500	1.799143
2.350000	1.799143
2.350500	1.798824
2.351000	1.798187
2.351500	1.797869
2.352000	1.798506
2.352500	1.799143
2.353000	1.801054
2.353500	1.801691
2.354000	1.800098
2.354500	1.798824
2.355000	1.799143
2.355500	1.796913
2.356000	1.797550
2.356500	1.797232
2.357000	1.799143
2.357500	1.798187
2.358000	1.797869
2.358500	1.797232
2.359000	1.795957
2.359500	1.796276
2.360000	1.796276
2.360500	1.797550
2.361000	1.798187
2.361500	1.799143
2.362000	1.798506
2.362500	1.798824
2.363000	1.797869
2.363500	1.797550
2.364000	1.797869
2.364500	1.799461
2.365000	1.800098
2.365500	1.801054
2.366000	1.799780
2.366500	1.798824
2.367000	1.797550
2.367500	1.796913
2.368000	1.796913
2.368500	1.797232
2.369000	1.798187
2.369500	1.797550
2.370000	1.797869
2.370500	1.796595
2.371000	1.795002
2.371500	1.795957
2.372000	1.796913
2.372500	1.796595
2.373000	1.797869
2.373500	1.797550
2.374000	1.797869
2.374500	1.797869
2.375000	1.796595
2.375500	1.796913
2.376000	1.796595
2.376500	1.797869
2.377000	1.799461
2.377500	1.799461
2.378000	1.798824
2.378500	1.797869
2.379000	1.796913
2.379500	1.796913
2.380000	1.796276
2.380500	1.796913
2.381000	1.797550
2.381500	1.798187
2.382000	1.797550
2.382500	1.796276
2.383000	1.794683
2.383500	1.794365
2.384000	1.796913
2.384500	1.797232
2.385000	1.797550
2.385500	1.797869
2.386000	1.797869
2.386500	1.798506
2.387000	1.797232
2.387500	1.797232
2.388000	1.797550
2.388500	1.798506
2.389000	1.800098
2.389500	1.799780
2.390000	1.797550
2.390500	1.797869
2.391000	1.797232
2.391500	1.796276
2.392000	1.796595
2.392500	1.797232
2.393000	1.797232
2.393500	1.797550
2.394000	1.796913
2.394500	1.795639
2.395000	1.795320
2.395500	1.795002
2.396000	1.796276
2.396500	1.796913
2.397000	1.797232
2.397500	1.797869
2.398000	1.797869
2.398500	1.797869
2.399000	1.796595
2.399500	1.796913
2.400000	1.797232
2.400500	1.799461
2.401000	1.800417
2.401500	1.798506
2.402000	1.797869
2.402500	1.797550
2.403000	1.796913
2.403500	1.797232
2.404000	1.796913
2.404500	1.797869
2.405000	1.797232
2.405500	1.796913
2.406000	1.796913
2.406500	1.795320
2.407000	1.794683
2.407500	1.795320
2.408000	1.796913
2.408500	1.797232
2.409000	1.798187
2.409500	1.797550
2.410000	1.798187
2.410500	1.798187
2.411000	1.797869
2.411500	1.797869
2.412000	1.798506
2.412500	1.799780
2.413000	1.800736
2.413500	1.799461
2.414000	1.798506
2.414500	1.797550
2.415000	1.796913
2.415500	1.796913
2.416000	1.796595
2.416500	1.797550
2.417000	1.798187
2.417500	1.797550
2.418000	1.798187
2.418500	1.795639
2.419000	1.795320
2.419500	1.795639
2.420000	1.796595
2.420500	1.797869
2.421000	1.798187
2.421500	1.798824
2.422000	1.798187
2.422500	1.798506
2.423000	1.796913
2.423500	1.798506
2.424000	1.799143
2.424500	1.800417
2.425000	1.800417
2.425500	1.800417
2.426000	1.799461
2.426500	1.798187
2.427000	1.797550
2.427500	1.796913
2.428000	1.796595
2.428500	1.797232
2.429000	1.798187
2.429500	1.797550
2.430000	1.797232
2.430500	1.795639
2.431000	1.795002
2.431500	1.796913
2.432000	1.797550
2.432500	1.797869
2.433000	1.798506
2.433500	1.798824
2.434000	1.798824
2.434500	1.798187
2.435000	1.797869
2.435500	1.797232
2.436000	1.799780
2.436500	1.800417
2.437000	1.801054
2.437500	1.799780
2.438000	1.799143
2.438500	1.797869
2.439000	1.797232
2.439500	1.797232
2.440000	1.798187
2.440500	1.796913
2.441000	1.797550
2.441500	1.798187
2.442000	1.797550
2.442500	1.795639
2.443000	1.795002
2.443500	1.795957
2.444000	1.796913
2.444500	1.797232
2.445000	1.798824
2.445500	1.799461
2.446000	1.799143
2.446500	1.798187
2.447000	1.798187
2.447500	1.797550
2.448000	1.799143
2.448500	1.800417
2.449000	1.801373
2.449500	1.800417
2.450000	1.798187
2.450500	1.797550
2.451000	1.797232
2.451500	1.797869
2.452000	1.796913
2.452500	1.797869
2.453000	1.798506
2.453500	1.797869
2.454000	1.798506
2.454500	1.795639
2.455000	1.795957
2.455500	1.795639
2.456000	1.797232
2.456500	1.798506
2.457000	1.797869
2.457500	1.798506
2.458000	1.797869
2.458500	1.798187
2.459000	1.797869
2.459500	1.797550
2.460000	1.798824
2.460500	1.799780
2.461000	1.800417
2.461500	1.799461
2.462000	1.798506
2.462500	1.797869
2.463000	1.797869
2.463500	1.797232
2.464000	1.796276
2.464500	1.797869
2.465000	1.797869
2.465500	1.797869
2.466000	1.796913
2.466500	1.796595
2.467000	1.795002
2.467500	1.795320
2.468000	1.796913
2.468500	1.798187
2.469000	1.798187
2.469500	1.798824
2.470000	1.798506
2.470500	1.798506
2.471000	1.797232
2.471500	1.797232
2.472000	1.798187
2.472500	1.799461
2.473000	1.800736
2.473500	1.799780
2.474000	1.798506
2.474500	1.797550
2.475000	1.797232
2.475500	1.795639
2.476000	1.796913
2.476500	1.796913
2.477000	1.798187
2.477500	1.798187
2.478000	1.796913
2.478500	1.795639
2.479000	1.795639
2.479500	1.795320
2.480000	1.796913
2.480500	1.798187
2.481000	1.798187
2.481500	1.798506
2.482000	1.797869
2.482500	1.797869
2.483000	1.797232
2.483500	1.796913
2.484000	1.801054
2.484500	1.799780
2.485000	1.798506
2.485500	1.799143
2.486000	1.797232
2.486500	1.797232
2.487000	1.796913
2.487500	1.796595
2.488000	1.796913
2.488500	1.797869
2.489000	1.798187
2.489500	1.797550
2.490000	1.797232
2.490500	1.795957
2.491000	1.795957
2.491500	1.796276
2.492000	1.796276
2.492500	1.797550
2.493000	1.798187
2.493500	1.798824
2.494000	1.797869
2.494500	1.797869
2.495000	1.797869
2.495500	1.796595
2.496000	1.798824
2.496500	1.800098
2.497000	1.800098
2.497500	1.798824
2.498000	1.797869
2.498500	1.797232
2.499000	1.796913
2.499500	1.796913
2.500000	1.796913
2.500500	1.797869
2.501000	1.796913
2.501500	1.797550
2.502000	1.795957
2.502500	1.795320
2.503000	1.795639
2.503500	1.795957
2.504000	1.797869
2.504500	1.797232
2.505000	1.797550
2.505500	1.797550
2.506000	1.797550
2.506500	1.796913
2.507000	1.796595
2.507500	1.796913
2.508000	1.798506
2.508500	1.799780
2.509000	1.798824
2.509500	1.798506
2.510000	1.797550
2.510500	1.796913
2.511000	1.796595
2.511500	1.796276
2.512000	1.797232
2.512500	1.796913
2.513000	1.798506
2.513500	1.797550
2.514000	1.795320
2.514500	1.794683
2.515000	1.794683
2.515500	1.796276
2.516000	1.797869
2.516500	1.797232
2.517000	1.797869
2.517500	1.798187
2.518000	1.797550
2.518500	1.797869
2.519000	1.797232
2.519500	1.797869
2.520000	1.799143
2.520500	1.799780
2.521000	1.798824
2.521500	1.798824
2.522000	1.797869
2.522500	1.797869
2.523000	1.796913
2.523500	1.797232
2.524000	1.771111
2.524500	1.798506
2.525000	1.798824
2.525500	1.797232
2.526000	1.795957
2.526500	1.795639
2.527000	1.796276
2.527500	1.796913
2.528000	1.797550
2.528500	1.798187
2.529000	1.798506
2.529500	1.798824
2.530000	1.797550
2.530500	1.797550
2.531000	1.796276
2.531500	1.797869
2.532000	1.798824
2.532500	1.800098
2.533000	1.799461
2.533500	1.798187
2.534000	1.797232
2.534500	1.796913
2.535000	1.796276
2.535500	1.797550
2.536000	1.796913
2.536500	1.798187
2.537000	1.798187
2.537500	1.796595
2.538000	1.795320
2.538500	1.794683
2.539000	1.796276
2.539500	1.796276
2.540000	1.797550
2.540500	1.797232
2.541000	1.798187
2.541500	1.798187
2.542000	1.796276
2.542500	1.796595
2.543000	1.796913
2.543500	1.798506
2.544000	1.799143
2.544500	1.799143
2.545000	1.798824
2.545500	1.797550
2.546000	1.797869
2.546500	1.795957
2.547000	1.796595
2.547500	1.796595
2.548000	1.797550
2.548500	1.797550
2.549000	1.796276
2.549500	1.796276
2.550000	1.794683
2.550500	1.793728
2.551000	1.794683
2.551500	1.795639
2.552000	1.796276
2.552500	1.797232
2.553000	1.797869
2.553500	1.797232
2.554000	1.796595
2.554500	1.796276
2.555000	1.797550
2.555500	1.797550
2.556000	1.799780
2.556500	1.799143
2.557000	1.798187
2.557500	1.797550
2.558000	1.796595
2.558500	1.795957
2.559000	1.795639
2.559500	1.796913
2.560000	1.796595
2.560500	1.796913
2.561000	1.797232
2.561500	1.795639
2.562000	1.793409
2.562500	1.793409
2.563000	1.794683
2.563500	1.795320
2.564000	1.796276
2.564500	1.796595
2.565000	1.798187
2.565500	1.797232
2.566000	1.796276
2.566500	1.795957
2.567000	1.796595
2.567500	1.797232
2.568000	1.799143
2.568500	1.799143
2.569000	1.797869
2.569500	1.796913
2.570000	1.796595
2.570500	1.795957
2.571000	1.796276
2.571500	1.796913
2.572000	1.797232
2.572500	1.797232
2.573000	1.796913
2.573500	1.795639
2.574000	1.794683
2.574500	1.794365
2.575000	1.794683
2.575500	1.795957
2.576000	1.796595
2.576500	1.797232
2.577000	1.797869
2.577500	1.796595
2.578000	1.797550
2.578500	1.796276
2.579000	1.797232
2.579500	1.797232
2.580000	1.798824
2.580500	1.800417
2.581000	1.799143
2.581500	1.797232
2.582000	1.796595
2.582500	1.795957
2.583000	1.795957
2.583500	1.796276
2.584000	1.796595
2.584500	1.797232
2.585000	1.796913
2.585500	1.795957
2.586000	1.795002
2.586500	1.794365
2.587000	1.795002
2.587500	1.796276
2.588000	1.796913
2.588500	1.796913
2.589000	1.796595
2.589500	1.797550
2.590000	1.796913
2.590500	1.795320
2.591000	1.795957
2.591500	1.797232
2.592000	1.798824
2.592500	1.800098
2.593000	1.798824
2.593500	1.797869
2.594000	1.796595
2.594500	1.795957
2.595000	1.795639
2.595500	1.795957
2.596000	1.796276
2.596500	1.796276
2.597000	1.796913
2.597500	1.796913
2.598000	1.795320
2.598500	1.794046
2.599000	1.794683
2.599500	1.795957
2.600000	1.796595
2.600500	1.796913
2.601000	1.797550
2.601500	1.797869
2.602000	1.797232
2.602500	1.796595
2.603000	1.795957
2.603500	1.796913
2.604000	1.801054
2.604500	1.799143
2.605000	1.799143
2.605500	1.796595
2.606000	1.796913
2.606500	1.795957
2.607000	1.795320
2.607500	1.795639
2.608000	1.796913
2.608500	1.796595
2.609000	1.796276
2.609500	1.796276
2.610000	1.794365
2.610500	1.794683
2.611000	1.794683
2.611500	1.795002
2.612000	1.797550
2.612500	1.797232
2.613000	1.797232
2.613500	1.797550
2.614000	1.796595
2.614500	1.795957
2.615000	1.796595
2.615500	1.796913
2.616000	1.798824
2.616500	1.799780
2.617000	1.798506
2.617500	1.797869
2.618000	1.796913
2.618500	1.796276
2.619000	1.796595
2.619500	1.795957
2.620000	1.797232
2.620500	1.796913
2.621000	1.796913
2.621500	1.796276
2.622000	1.795002
2.622500	1.794365
2.623000	1.794683
2.623500	1.796913
2.624000	1.798187
2.624500	1.797550
2.625000	1.797869
2.625500	1.797869
2.626000	1.797550
2.626500	1.797232
2.627000	1.796913
2.627500	1.797550
2.628000	1.798506
2.628500	1.799780
2.629000	1.799461
2.629500	1.798506
2.630000	1.797550
2.630500	1.796595
2.631000	1.796595
2.631500	1.797869
2.632000	1.797232
2.632500	1.797232
2.633000	1.797869
2.633500	1.797550
2.634000	1.795639
2.634500	1.795002
2.635000	1.795320
2.635500	1.796595
2.636000	1.796913
2.636500	1.797869
2.637000	1.798506
2.637500	1.798506
2.638000	1.797232
2.638500	1.796913
2.639000	1.796913
2.639500	1.798187
2.640000	1.797869
2.640500	1.800098
2.641000	1.799143
2.641500	1.798506
2.642000	1.797232
2.642500	1.796276
2.643000	1.796913
2.643500	1.796595
2.644000	1.798187
2.644500	1.797869
2.645000	1.798187
2.645500	1.797232
2.646000	1.795639
2.646500	1.794683
2.647000	1.795320
2.647500	1.797232
2.648000	1.796913
2.648500	1.798187
2.649000	1.799143
2.649500	1.798187
2.650000	1.797550
2.650500	1.796913
2.651000	1.796595
2.651500	1.798187
2.652000	1.798506
2.652500	1.799780
2.653000	1.799143
2.653500	1.797232
2.654000	1.797232
2.654500	1.796276
2.655000	1.797550
2.655500	1.796595
2.656000	1.796913
2.656500	1.798187
2.657000	1.798506
2.657500	1.797550
2.658000	1.796276
2.658500	1.795320
2.659000	1.795320
2.659500	1.795639
2.660000	1.796913
2.660500	1.796595
2.661000	1.797550
2.661500	1.797550
2.662000	1.797869
2.662500	1.797232
2.663000	1.795957
2.663500	1.796913
2.664000	1.798187
2.664500	1.799143
2.665000	1.799143
2.665500	1.798824
2.666000	1.797550
2.666500	1.796276
2.667000	1.796913
2.667500	1.795957
2.668000	1.796595
2.668500	1.796595
2.669000	1.797550
2.669500	1.796913
2.670000	1.796276
2.670500	1.795320
2.671000	1.794046
2.671500	1.795002
2.672000	1.796276
2.672500	1.796913
2.673000	1.797232
2.673500	1.797232
2.674000	1.797869
2.674500	1.797232
2.675000	1.795957
2.675500	1.795957
2.676000	1.796913
2.676500	1.799143
2.677000	1.799143
2.677500	1.798824
2.678000	1.797869
2.678500	1.796913
2.679000	1.795002
2.679500	1.795320
2.680000	1.796276
2.680500	1.795957
2.681000	1.796595
2.681500	1.796595
2.682000	1.795957
2.682500	1.794365
2.683000	1.794046
2.683500	1.795320
2.684000	1.796276
2.684500	1.795957
2.685000	1.796913
2.685500	1.798187
2.686000	1.797550
2.686500	1.796913
2.687000	1.796913
2.687500	1.796276
2.688000	1.797232
2.688500	1.799143
2.689000	1.799143
2.689500	1.798824
2.690000	1.797869
2.690500	1.796595
2.691000	1.796595
2.691500	1.795320
2.692000	1.795957
2.692500	1.796276
2.693000	1.796595
2.693500	1.797232
2.694000	1.796276
2.694500	1.795002
2.695000	1.794365
2.695500	1.794683
2.696000	1.796276
2.696500	1.796595
2.697000	1.797232
2.697500	1.797869
2.698000	1.798824
2.698500	1.798187
2.699000	1.796595
2.699500	1.796276
2.700000	1.796913
2.700500	1.798187
2.701000	1.798824
2.701500	1.799143
2.702000	1.797869
2.702500	1.797232
2.703000	1.796913
2.703500	1.796913
2.704000	1.796595
2.704500	1.797550
2.705000	1.796913
2.705500	1.797550
2.706000	1.795957
2.706500	1.795957
2.707000	1.794046
2.707500	1.794365
2.708000	1.795002
2.708500	1.795639
2.709000	1.796276
2.709500	1.796913
2.710000	1.797869
2.710500	1.797232
2.711000	1.797232
2.711500	1.797232
2.712000	1.795320
2.712500	1.797550
2.713000	1.799143
2.713500	1.798506
2.714000	1.798824
2.714500	1.798187
2.715000	1.797550
2.715500	1.796595
2.716000	1.796276
2.716500	1.796276
2.717000	1.796276
2.717500	1.797550
2.718000	1.797550
2.718500	1.797550
2.719000	1.795957
2.719500	1.795002
2.720000	1.794365
2.720500	1.795639
2.721000	1.796913
2.721500	1.796276
2.722000	1.797232
2.722500	1.796913
2.723000	1.796595
2.723500	1.796595
2.724000	1.798187
2.724500	1.796913
2.725000	1.797869
2.725500	1.799780
2.726000	1.798187
2.726500	1.797550
2.727000	1.796913
2.727500	1.795957
2.728000	1.795639
2.728500	1.795639
2.729000	1.795320
2.729500	1.796913
2.730000	1.797232
2.730500	1.796913
2.731000	1.794365
2.731500	1.793728
2.732000	1.794046
2.732500	1.794365
2.733000	1.795957
2.733500	1.796595
2.734000	1.796913
2.734500	1.796276
2.735000	1.796276
2.735500	1.795957
2.736000	1.795639
2.736500	1.796276
2.737000	1.796913
2.737500	1.797869
2.738000	1.798187
2.738500	1.797869
2.739000	1.796913
2.739500	1.795639
2.740000	1.795639
2.740500	1.795320
2.741000	1.795639
2.741500	1.795957
2.742000	1.796913
2.742500	1.796913
2.743000	1.795320
2.743500	1.794365
2.744000	1.794046
2.744500	1.795002
2.745000	1.796276
2.745500	1.796913
2.746000	1.797232
2.746500	1.797550
2.747000	1.797232
2.747500	1.796913
2.748000	1.795957
2.748500	1.796276
2.749000	1.796913
2.749500	1.798187
2.750000	1.799143
2.750500	1.798824
2.751000	1.796595
2.751500	1.795639
2.752000	1.796276
2.752500	1.795320
2.753000	1.795639
2.753500	1.797232
2.754000	1.796913
2.754500	1.796276
2.755000	1.796276
2.755500	1.794683
2.756000	1.794365
2.756500	1.794365
2.757000	1.795639
2.757500	1.796276
2.758000	1.797550
2.758500	1.797550
2.759000	1.797869
2.759500	1.796913
2.760000	1.797550
2.760500	1.796595
2.761000	1.797232
2.761500	1.799461
2.762000	1.798824
2.762500	1.799143
2.763000	1.797550
2.763500	1.795957
2.764000	1.797232
2.764500	1.795957
2.765000	1.795639
2.765500	1.795639
2.766000	1.797232
2.766500	1.797869
2.767000	1.796595
2.767500	1.795957
2.768000	1.794365
2.768500	1.795320
2.769000	1.796595
2.769500	1.797550
2.770000	1.798187
2.770500	1.797232
2.771000	1.797550
2.771500	1.797550
2.772000	1.797550
2.772500	1.796595
2.773000	1.796595
2.773500	1.799461
2.774000	1.799461
2.774500	1.799780
2.775000	1.798187
2.775500	1.796913
2.776000	1.796595
2.776500	1.796276
2.777000	1.796913
2.777500	1.797232
2.778000	1.797232
2.778500	1.797550
2.779000	1.797232
2.779500	1.796913
2.780000	1.795002
2.780500	1.794365
2.781000	1.796276
2.781500	1.796595
2.782000	1.797550
2.782500	1.797232
2.783000	1.798187
2.783500	1.798187
2.784000	1.797550
2.784500	1.796913
2.785000	1.796913
2.785500	1.797550
2.786000	1.799461
2.786500	1.799143
2.787000	1.799780
2.787500	1.797869
2.788000	1.797550
2.788500	1.796913
2.789000	1.796913
2.789500	1.797232
2.790000	1.797232
2.790500	1.798506
2.791000	1.798824
2.791500	1.797550
2.792000	1.795639
2.792500	1.795320
2.793000	1.796276
2.793500	1.796913
2.794000	1.797869
2.794500	1.799143
2.795000	1.799461
2.795500	1.798506
2.796000	1.798824
2.796500	1.797232
2.797000	1.796913
2.797500	1.797869
2.798000	1.799780
2.798500	1.800736
2.799000	1.800098
2.799500	1.799461
2.800000	1.798187
2.800500	1.796913
2.801000	1.796595
2.801500	1.796913
2.802000	1.797550
2.802500	1.797550
2.803000	1.797550
2.803500	1.797232
2.804000	1.795957
2.804500	1.795002
2.805000	1.795639
2.805500	1.796913
2.806000	1.797550
2.806500	1.798824
2.807000	1.798824
2.807500	1.798824
2.808000	1.797550
2.808500	1.797232
2.809000	1.796595
2.809500	1.797869
2.810000	1.799461
2.810500	1.800736
2.811000	1.800098
2.811500	1.798506
2.812000	1.796913
2.812500	1.797550
2.813000	1.798187
2.813500	1.797232
2.814000	1.797869
2.814500	1.797869
2.815000	1.798506
2.815500	1.797869
2.816000	1.796913
2.816500	1.795320
2.817000	1.795639
2.817500	1.796595
2.818000	1.798506
2.818500	1.798187
2.819000	1.798506
2.819500	1.798824
2.820000	1.798506
2.820500	1.797550
2.821000	1.797550
2.821500	1.797550
2.822000	1.798824
2.822500	1.800417
2.823000	1.800736
2.823500	1.799780
2.824000	1.797550
2.824500	1.797550
2.825000	1.796913
2.825500	1.797550
2.826000	1.796595
2.826500	1.797232
2.827000	1.798187
2.827500	1.798506
2.828000	1.796913
2.828500	1.795002
2.829000	1.795639
2.829500	1.795957
2.830000	1.797232
2.830500	1.797232
2.831000	1.798506
2.831500	1.798187
2.832000	1.797869
2.832500	1.798187
2.833000	1.797232
2.833500	1.797550
2.834000	1.798187
2.834500	1.799461
2.835000	1.799780
2.835500	1.799461
2.836000	1.798187
2.836500	1.797232
2.837000	1.797550
2.837500	1.795639
2.838000	1.796913
2.838500	1.797232
2.839000	1.797550
2.839500	1.796913
2.840000	1.796913
2.840500	1.795957
2.841000	1.795639
2.841500	1.795002
2.842000	1.795957
2.842500	1.796913
2.843000	1.797232
2.843500	1.797232
2.844000	1.797869
2.844500	1.798187
2.845000	1.796595
2.845500	1.796595
2.846000	1.796595
2.846500	1.798824
2.847000	1.799461
2.847500	1.799780
2.848000	1.799143
2.848500	1.797232
2.849000	1.796913
2.849500	1.795957
2.850000	1.796595
2.850500	1.796595
2.851000	1.797550
2.851500	1.796913
2.852000	1.796276
2.852500	1.795320
2.853000	1.794365
2.853500	1.794365
2.854000	1.795639
2.854500	1.796595
2.855000	1.796913
2.855500	1.796913
2.856000	1.797869
2.856500	1.797550
2.857000	1.796595
2.857500	1.796913
2.858000	1.796913
2.858500	1.798187
2.859000	1.798824
2.859500	1.799143
2.860000	1.798187
2.860500	1.797232
2.861000	1.797232
2.861500	1.796595
2.862000	1.796595
2.862500	1.797232
2.863000	1.797550
2.863500	1.796913
2.864000	1.797869
2.864500	1.796913
2.865000	1.795320
2.865500	1.794683
2.866000	1.794683
2.866500	1.796913
2.867000	1.797550
2.867500	1.798187
2.868000	1.799143
2.868500	1.798506
2.869000	1.797869
2.869500	1.798506
2.870000	1.797550
2.870500	1.798187
2.871000	1.799143
2.871500	1.800417
2.872000	1.800417
2.872500	1.800098
2.873000	1.798187
2.873500	1.797550
2.874000	1.796913
2.874500	1.797550
2.875000	1.797550
2.875500	1.799143
2.876000	1.798506
2.876500	1.798187
2.877000	1.796913
2.877500	1.795639
2.878000	1.795957
2.878500	1.797232
2.879000	1.798506
2.879500	1.798824
2.880000	1.798824
2.880500	1.799780
2.881000	1.798824
2.881500	1.798824
2.882000	1.798506
2.882500	1.797550
2.883000	1.798506
2.883500	1.800417
2.884000	1.800736
2.884500	1.800098
2.885000	1.799143
2.885500	1.797869
2.886000	1.798187
2.886500	1.797550
2.887000	1.797869
2.887500	1.799143
2.888000	1.799461
2.888500	1.799143
2.889000	1.797869
2.889500	1.796913
2.890000	1.795957
2.890500	1.796595
2.891000	1.797550
2.891500	1.797232
2.892000	1.798824
2.892500	1.799780
2.893000	1.798506
2.893500	1.799143
2.894000	1.798187
2.894500	1.798187
2.895000	1.798506
2.895500	1.800736
2.896000	1.801373
2.896500	1.800736
2.897000	1.800098
2.897500	1.798824
2.898000	1.798187
2.898500	1.797869
2.899000	1.798506
2.899500	1.798824
2.900000	1.799461
2.900500	1.798187
2.901000	1.798824
2.901500	1.796913
2.902000	1.796913
2.902500	1.796595
2.903000	1.797232
2.903500	1.797869
2.904000	1.799143
2.904500	1.798506
2.905000	1.799780
2.905500	1.799143
2.906000	1.798824
2.906500	1.797869
2.907000	1.798824
2.907500	1.799143
2.908000	1.801691
2.908500	1.801373
2.909000	1.799461
2.909500	1.798506
2.910000	1.798506
2.910500	1.798187
2.911000	1.797550
2.911500	1.798506
2.912000	1.798187
2.912500	1.799461
2.913000	1.799143
2.913500	1.797232
2.914000	1.796595
2.914500	1.795320
2.915000	1.795639
2.915500	1.797869
2.916000	1.797550
2.916500	1.798506
2.917000	1.798824
2.917500	1.799461
2.918000	1.798187
2.918500	1.797550
2.919000	1.797550
2.919500	1.798187
2.920000	1.798824
2.920500	1.800736
2.921000	1.800417
2.921500	1.798187
2.922000	1.797869
2.922500	1.797232
2.923000	1.796913
2.923500	1.796276
2.924000	1.796913
2.924500	1.798824
2.925000	1.797869
2.925500	1.797869
2.926000	1.795957
2.926500	1.795002
2.927000	1.794365
2.927500	1.796913
2.928000	1.797550
2.928500	1.798187
2.929000	1.798187
2.929500	1.798187
2.930000	1.797232
2.930500	1.796595
2.931000	1.795639
2.931500	1.797232
2.932000	1.798187
2.932500	1.800098
2.933000	1.799143
2.933500	1.798187
2.934000	1.796913
2.934500	1.796276
2.935000	1.796913
2.935500	1.795957
2.936000	1.795957
2.936500	1.797232
2.937000	1.798187
2.937500	1.796913
2.938000	1.796276
2.938500	1.794683
2.939000	1.794365
2.939500	1.796276
2.940000	1.796913
2.940500	1.797869
2.941000	1.797550
2.941500	1.797550
2.942000	1.797869
2.942500	1.797232
2.943000	1.796276
2.943500	1.797869
2.944000	1.797869
2.944500	1.799461
2.945000	1.799461
2.945500	1.797550
2.946000	1.796913
2.946500	1.796913
2.947000	1.796595
2.947500	1.796276
2.948000	1.796595
2.948500	1.796595
2.949000	1.797232
2.949500	1.797550
2.950000	1.795957
2.950500	1.794365
2.951000	1.794683
2.951500	1.796276
2.952000	1.796595
2.952500	1.796913
2.953000	1.796913
2.953500	1.797550
2.954000	1.797232
2.954500	1.796913
2.955000	1.795639
2.955500	1.796913
2.956000	1.798187
2.956500	1.799461
2.957000	1.799780
2.957500	1.798187
2.958000	1.796595
2.958500	1.796913
2.959000	1.795957
2.959500	1.795957
2.960000	1.795639
2.960500	1.796595
2.961000	1.797550
2.961500	1.797232
2.962000	1.796276
2.962500	1.794683
2.963000	1.794365
2.963500	1.795639
2.964000	1.796276
2.964500	1.796913
2.965000	1.796913
2.965500	1.797869
2.966000	1.797232
2.966500	1.797869
2.967000	1.796913
2.967500	1.797232
2.968000	1.797869
2.968500	1.799143
2.969000	1.800736
2.969500	1.799461
2.970000	1.798506
2.970500	1.797232
2.971000	1.797232
2.971500	1.795957
2.972000	1.796913
2.972500	1.796913
2.973000	1.796913
2.973500	1.797550
2.974000	1.796276
2.974500	1.795002
2.975000	1.795320
2.975500	1.795002
2.976000	1.796913
2.976500	1.797232
2.977000	1.797550
2.977500	1.797869
2.978000	1.797232
2.978500	1.798187
2.979000	1.796595
2.979500	1.796276
2.980000	1.796913
2.980500	1.799143
2.981000	1.800098
2.981500	1.799143
2.982000	1.798187
2.982500	1.797550
2.983000	1.796595
2.983500	1.796595
2.984000	1.796913
2.984500	1.797232
2.985000	1.798187
2.985500	1.797550
2.986000	1.796913
2.986500	1.796276
2.987000	1.795002
2.987500	1.795320
2.988000	1.795957
2.988500	1.797232
2.989000	1.798187
2.989500	1.798506
2.990000	1.797869
2.990500	1.797550
2.991000	1.798187
2.991500	1.797232
2.992000	1.796913
2.992500	1.798824
2.993000	1.799780
2.993500	1.799461
2.994000	1.798187
2.994500	1.798187
2.995000	1.797232
2.995500	1.796595
2.996000	1.796595
2.996500	1.795957
2.997000	1.797232
2.997500	1.797550
2.998000	1.797232
2.998500	1.797232
2.999000	1.795639
2.999500	1.795002
3.000000	1.794683
3.000500	1.796276
3.001000	1.797232
3.001500	1.797550
3.002000	1.798187
3.002500	1.797869
3.003000	1.797550
3.003500	1.797550
3.004000	1.797232
3.004500	1.798187
3.005000	1.798824
3.005500	1.799780
3.006000	1.800098
3.006500	1.798506
3.007000	1.797232
3.007500	1.797550
3.008000	1.797232
3.008500	1.796276
3.009000	1.797232
3.009500	1.797869
3.010000	1.797869
3.010500	1.797550
3.011000	1.796595
3.011500	1.794365
3.012000	1.795002
3.012500	1.796276
3.013000	1.796913
3.013500	1.797550
3.014000	1.798506
3.014500	1.798187
3.015000	1.798506
3.015500	1.797550
3.016000	1.796913
3.016500	1.797550
3.017000	1.798506
3.017500	1.799780
3.018000	1.800736
3.018500	1.798506
3.019000	1.797550
3.019500	1.797869
3.020000	1.796913
3.020500	1.796913
3.021000	1.796276
3.021500	1.797869
3.022000	1.797550
3.022500	1.797550
3.023000	1.796595
3.023500	1.795639
3.024000	1.794683
3.024500	1.796276
3.025000	1.796595
3.025500	1.798187
3.026000	1.798187
3.026500	1.798187
3.027000	1.798187
3.027500	1.798824
3.028000	1.796913
3.028500	1.797232
3.029000	1.798187
3.029500	1.799461
3.030000	1.800098
3.030500	1.799780
3.031000	1.798506
3.031500	1.797550
3.032000	1.796913
3.032500	1.796913
3.033000	1.796913
3.033500	1.797232
3.034000	1.797550
3.034500	1.797869
3.035000	1.797550
3.035500	1.796913
3.036000	1.795002
3.036500	1.796595
3.037000	1.796913
3.037500	1.797232
3.038000	1.798187
3.038500	1.798824
3.039000	1.798824
3.039500	1.798824
3.040000	1.798506
3.040500	1.797869
3.041000	1.797869
3.041500	1.799461
3.042000	1.801054
3.042500	1.800417
3.043000	1.800098
3.043500	1.799461
3.044000	1.798506
3.044500	1.797550
3.045000	1.797869
3.045500	1.797869
3.046000	1.798824
3.046500	1.799461
3.047000	1.798824
3.047500	1.797232
3.048000	1.795957
3.048500	1.795639
3.049000	1.796913
3.049500	1.797869
3.050000	1.797869
3.050500	1.799780
3.051000	1.798824
3.051500	1.798506
3.052000	1.798187
3.052500	1.797869
3.053000	1.797869
3.053500	1.798824
3.054000	1.800098
3.054500	1.801373
3.055000	1.800098
3.055500	1.798506
3.056000	1.798187
3.056500	1.797550
3.057000	1.798187
3.057500	1.797550
3.058000	1.797869
3.058500	1.798824
3.059000	1.798506
3.059500	1.797869
3.060000	1.796913
3.060500	1.795957
3.061000	1.796276
3.061500	1.796595
3.062000	1.797232
3.062500	1.797869
3.063000	1.798187
3.063500	1.799143
3.064000	1.799143
3.064500	1.799143
3.065000	1.797550
3.065500	1.798506
3.066000	1.800098
3.066500	1.799780
3.067000	1.800736
3.067500	1.799780
3.068000	1.798187
3.068500	1.797869
3.069000	1.797550
3.069500	1.797232
3.070000	1.798187
3.070500	1.798824
3.071000	1.799143
3.071500	1.798506
3.072000	1.796595
3.072500	1.795957
3.073000	1.795957
3.073500	1.797232
3.074000	1.798187
3.074500	1.798187
3.075000	1.799143
3.075500	1.799780
3.076000	1.798824
3.076500	1.798506
3.077000	1.797550
3.077500	1.798187
3.078000	1.798824
3.078500	1.800417
3.079000	1.800417
3.079500	1.799461
3.080000	1.798506
3.080500	1.797869
3.081000	1.797232
3.081500	1.796913
3.082000	1.797232
3.082500	1.797550
3.083000	1.798506
3.083500	1.797869
3.084000	1.796913
3.084500	1.795957
3.085000	1.795957
3.085500	1.795639
3.086000	1.797232
3.086500	1.797550
3.087000	1.798506
3.087500	1.798187
3.088000	1.798824
3.088500	1.797869
3.089000	1.797550
3.089500	1.796595
3.090000	1.797550
3.090500	1.799461
3.091000	1.800736
3.091500	1.799780
3.092000	1.798187
3.092500	1.797869
3.093000	1.797869
3.093500	1.797550
3.094000	1.797232
3.094500	1.797232
3.095000	1.798824
3.095500	1.797550
3.096000	1.796913
3.096500	1.796276
3.097000	1.795639
3.097500	1.795002
3.098000	1.796276
3.098500	1.797869
3.099000	1.797869
3.099500	1.798506
3.100000	1.798824
3.100500	1.797232
3.101000	1.797550
3.101500	1.797550
3.102000	1.798187
3.102500	1.799461
3.103000	1.800417
3.103500	1.799461
3.104000	1.798187
3.104500	1.797869
3.105000	1.797550
3.105500	1.796595
3.106000	1.796595
3.106500	1.797232
3.107000	1.797232
3.107500	1.797550
3.108000	1.796276
3.108500	1.795957
3.109000	1.794683
3.109500	1.795002
3.110000	1.796913
3.110500	1.797550
3.111000	1.798187
3.111500	1.798187
3.112000	1.798824
3.112500	1.797550
3.113000	1.797232
3.113500	1.796913
3.114000	1.797869
3.114500	1.799143
3.115000	1.800736
3.115500	1.799461
3.116000	1.798506
3.116500	1.797550
3.117000	1.797232
3.117500	1.797232
3.118000	1.796595
3.118500	1.797550
3.119000	1.797869
3.119500	1.797869
3.120000	1.796913
3.120500	1.795320
3.121000	1.795320
3.121500	1.795002
3.122000	1.796595
3.122500	1.797232
3.123000	1.797869
3.123500	1.797869
3.124000	1.798187
3.124500	1.797869
3.125000	1.797869
3.125500	1.797232
3.126000	1.797232
3.126500	1.799780
3.127000	1.800736
3.127500	1.799461
3.128000	1.798506
3.128500	1.798187
3.129000	1.796913
3.129500	1.796913
3.130000	1.796913
3.130500	1.797232
3.131000	1.797550
3.131500	1.798187
3.132000	1.797550
3.132500	1.796913
3.133000	1.795639
3.133500	1.795957
3.134000	1.796595
3.134500	1.796276
3.135000	1.798187
3.135500	1.798506
3.136000	1.798187
3.136500	1.797869
3.137000	1.797869
3.137500	1.797550
3.138000	1.797232
3.138500	1.799461
3.139000	1.799461
3.139500	1.800098
3.140000	1.799461
3.140500	1.797869
3.141000	1.797232
3.141500	1.796913
3.142000	1.796913
3.142500	1.796913
3.143000	1.796595
3.143500	1.797232
3.144000	1.797550
3.144500	1.797232
3.145000	1.796276
3.145500	1.795002
3.146000	1.795639
3.146500	1.797232
3.147000	1.797232
3.147500	1.796913
3.148000	1.798506
3.148500	1.797550
3.149000	1.796913
3.149500	1.796595
3.150000	1.796595
3.150500	1.797550
3.151000	1.798824
3.151500	1.800736
3.152000	1.798824
3.152500	1.798187
3.153000	1.797232
3.153500	1.796276
3.154000	1.796595
3.154500	1.796913
3.155000	1.796276
3.155500	1.798187
3.156000	1.797869
3.156500	1.796913
3.157000	1.796595
3.157500	1.795002
3.158000	1.795957
3.158500	1.796595
3.159000	1.796595
3.159500	1.797550
3.160000	1.798506
3.160500	1.797232
3.161000	1.798187
3.161500	1.796913
3.162000	1.797550
3.162500	1.797232
3.163000	1.798824
3.163500	1.798824
3.164000	1.799461
3.164500	1.798187
3.165000	1.797869
3.165500	1.795957
3.166000	1.795957
3.166500	1.795957
3.167000	1.796276
3.167500	1.796595
3.168000	1.796913
3.168500	1.796595
3.169000	1.795320
3.169500	1.794365
3.170000	1.794046
3.170500	1.795320
3.171000	1.797232
3.171500	1.797232
3.172000	1.797232
3.172500	1.797869
3.173000	1.797232
3.173500	1.796913
3.174000	1.796276
3.174500	1.796276
3.175000	1.797550
3.175500	1.798187
3.176000	1.799461
3.176500	1.798506
3.177000	1.797232
3.177500	1.797550
3.178000	1.796913
3.178500	1.795957
3.179000	1.796595
3.179500	1.796595
3.180000	1.798187
3.180500	1.797232
3.181000	1.795957
3.181500	1.794683
3.182000	1.795002
3.182500	1.795639
3.183000	1.796595
3.183500	1.796913
3.184000	1.796913
3.184500	1.797550
3.185000	1.797232
3.185500	1.796913
3.186000	1.796595
3.186500	1.797232
3.187000	1.797550
3.187500	1.798824
3.188000	1.799780
3.188500	1.799143
3.189000	1.797869
3.189500	1.795957
3.190000	1.796913
3.190500	1.795639
3.191000	1.796595
3.191500	1.796595
3.192000	1.797232
3.192500	1.797869
3.193000	1.796913
3.193500	1.794683
3.194000	1.793728
3.194500	1.795002
3.195000	1.795639
3.195500	1.796595
3.196000	1.796913
3.196500	1.796913
3.197000	1.796913
3.197500	1.796913
3.198000	1.796276
3.198500	1.796913
3.199000	1.796276
3.199500	1.797232
3.200000	1.798824
3.200500	1.799461
3.201000	1.798506
3.201500	1.796276
3.202000	1.795957
3.202500	1.795957
3.203000	1.795957
3.203500	1.795639
3.204000	1.796276
3.204500	1.796595
3.205000	1.796276
3.205500	1.795639
3.206000	1.794365
3.206500	1.793409
3.207000	1.794683
3.207500	1.795639
3.208000	1.796595
3.208500	1.796595
3.209000	1.797232
3.209500	1.795957
3.210000	1.796276
3.210500	1.795957
3.211000	1.796595
3.211500	1.797232
3.212000	1.799461
3.212500	1.798506
3.213000	1.798187
3.213500	1.797550
3.214000	1.796913
3.214500	1.795957
3.215000	1.796276
3.215500	1.796276
3.216000	1.796276
3.216500	1.797232
3.217000	1.797232
3.217500	1.796276
3.218000	1.795320
3.218500	1.794365
3.219000	1.794365
3.219500	1.795957
3.220000	1.796595
3.220500	1.797232
3.221000	1.797232
3.221500	1.797550
3.222000	1.797232
3.222500	1.796276
3.223000	1.796913
3.223500	1.796913
3.224000	1.797550
3.224500	1.799461
3.225000	1.799461
3.225500	1.797232
3.226000	1.796913
3.226500	1.795957
3.227000	1.795957
3.227500	1.795320
3.228000	1.796595
3.228500	1.796595
3.229000	1.796913
3.229500	1.796913
3.230000	1.795320
3.230500	1.794365
3.231000	1.795002
3.231500	1.795639
3.232000	1.797232
3.232500	1.796595
3.233000	1.797869
3.233500	1.798506
3.234000	1.797232
3.234500	1.796913
3.235000	1.796276
3.235500	1.797232
3.236000	1.799143
3.236500	1.799461
3.237000	1.799780
3.237500	1.798187
3.238000	1.798187
3.238500	1.796913
3.239000	1.796276
3.239500	1.796276
3.240000	1.796595
3.240500	1.796913
3.241000	1.797550
3.241500	1.796595
3.242000	1.795002
3.242500	1.794365
3.243000	1.795002
3.243500	1.795957
3.244000	1.796913
3.244500	1.797550
3.245000	1.797232
3.245500	1.798506
3.246000	1.796913
3.246500	1.796595
3.247000	1.796913
3.247500	1.797232
3.248000	1.797869
3.248500	1.798506
3.249000	1.799461
3.249500	1.798506
3.250000	1.796913
3.250500	1.796913
3.251000	1.796276
3.251500	1.796276
3.252000	1.795957
3.252500	1.796276
3.253000	1.797550
3.253500	1.796913
3.254000	1.796276
3.254500	1.795002
3.255000	1.795002
3.255500	1.795002
3.256000	1.796276
3.256500	1.796913
3.257000	1.797232
3.257500	1.797232
3.258000	1.797232
3.258500	1.796595
3.259000	1.795639
3.259500	1.796913
3.260000	1.796913
3.260500	1.798506
3.261000	1.798824
3.261500	1.798824
3.262000	1.797550
3.262500	1.796913
3.263000	1.796595
3.263500	1.796276
3.264000	1.795639
3.264500	1.797232
3.265000	1.796913
3.265500	1.796595
3.266000	1.796595
3.266500	1.795639
3.267000	1.794683
3.267500	1.795320
3.268000	1.796595
3.268500	1.795957
3.269000	1.796913
3.269500	1.797232
3.270000	1.798824
3.270500	1.797869
3.271000	1.796595
3.271500	1.796913
3.272000	1.797232
3.272500	1.797869
3.273000	1.799461
3.273500	1.799143
3.274000	1.797869
3.274500	1.798187
3.275000	1.796595
3.275500	1.796276
3.276000	1.795639
3.276500	1.796913
3.277000	1.798506
3.277500	1.797869
3.278000	1.797869
3.278500	1.796595
3.279000	1.795639
3.279500	1.794683
3.280000	1.795639
3.280500	1.796276
3.281000	1.797550
3.281500	1.798187
3.282000	1.798187
3.282500	1.797550
3.283000	1.797869
3.283500	1.796913
3.284000	1.797550
3.284500	1.798187
3.285000	1.800417
3.285500	1.799461
3.286000	1.799143
3.286500	1.797550
3.287000	1.797550
3.287500	1.796595
3.288000	1.797232
3.288500	1.796595
3.289000	1.797232
3.289500	1.797869
3.290000	1.797869
3.290500	1.797232
3.291000	1.795957
3.291500	1.794683
3.292000	1.795002
3.292500	1.796595
3.293000	1.797550
3.293500	1.797869
3.294000	1.797550
3.294500	1.797869
3.295000	1.797550
3.295500	1.797232
3.296000	1.797550
3.296500	1.798187
3.297000	1.799143
3.297500	1.800098
3.298000	1.801054
3.298500	1.799143
3.299000	1.797550
3.299500	1.797232
3.300000	1.796595
3.300500	1.796913
3.301000	1.796913
3.301500	1.797550
3.302000	1.798824
3.302500	1.797869
3.303000	1.796913
3.303500	1.795320
3.304000	1.795002
3.304500	1.796276
3.305000	1.796276
3.305500	1.797869
3.306000	1.798187
3.306500	1.797869
3.307000	1.798187
3.307500	1.797869
3.308000	1.797232
3.308500	1.796913
3.309000	1.797869
3.309500	1.799780
3.310000	1.800417
3.310500	1.799143
3.311000	1.799143
3.311500	1.798187
3.312000	1.797232
3.312500	1.796595
3.313000	1.796276
3.313500	1.796913
3.314000	1.797232
3.314500	1.798824
3.315000	1.797869
3.315500	1.796276
3.316000	1.795320
3.316500	1.794365
3.317000	1.795002
3.317500	1.795957
3.318000	1.797232
3.318500	1.797869
3.319000	1.797550
3.319500	1.797869
3.320000	1.797550
3.320500	1.796913
3.321000	1.796595
3.321500	1.797869
3.322000	1.799461
3.322500	1.799461
3.323000	1.799461
3.323500	1.797869
3.324000	1.796913
3.324500	1.796913
3.325000	1.796913
3.325500	1.796913
3.326000	1.796595
3.326500	1.797550
3.327000	1.796913
3.327500	1.796595
3.328000	1.795002
3.328500	1.795002
3.329000	1.795002
3.329500	1.795639
3.330000	1.796913
3.330500	1.797869
3.331000	1.797550
3.331500	1.797869
3.332000	1.796913
3.332500	1.796276
3.333000	1.796276
3.333500	1.797550
3.334000	1.798824
3.334500	1.800417
3.335000	1.798824
3.335500	1.797550
3.336000	1.797232
3.336500	1.796595
3.337000	1.795957
3.337500	1.796595
3.338000	1.797232
3.338500	1.796595
3.339000	1.796595
3.339500	1.796595
3.340000	1.796276
3.340500	1.794365
3.341000	1.794683
3.341500	1.795002
3.342000	1.795957
3.342500	1.796595
3.343000	1.797232
3.343500	1.797232
3.344000	1.795957
3.344500	1.796913
3.345000	1.796595
3.345500	1.795957
3.346000	1.798187
3.346500	1.799143
3.347000	1.798506
3.347500	1.797232
3.348000	1.795957
3.348500	1.796276
3.349000	1.795957
3.349500	1.795639
3.350000	1.796276
3.350500	1.796595
3.351000	1.796595
3.351500	1.796276
3.352000	1.795639
3.352500	1.793728
3.353000	1.794046
3.353500	1.795002
3.354000	1.795957
3.354500	1.795639
3.355000	1.797232
3.355500	1.796913
3.356000	1.795957
3.356500	1.795639
3.357000	1.795320
3.357500	1.796276
3.358000	1.797550
3.358500	1.798824
3.359000	1.798824
3.359500	1.797550
3.360000	1.797550
3.360500	1.796276
3.361000	1.796276
3.361500	1.796276
3.362000	1.795957
3.362500	1.796276
3.363000	1.796595
3.363500	1.796276
3.364000	1.796276
3.364500	1.794683
3.365000	1.794365
3.365500	1.795639
3.366000	1.795639
3.366500	1.796595
3.367000	1.798506
3.367500	1.797232
3.368000	1.797550
3.368500	1.796913
3.369000	1.796276
3.369500	1.797232
3.370000	1.797550
3.370500	1.799461
3.371000	1.799461
3.371500	1.799143
3.372000	1.796913
3.372500	1.796276
3.373000	1.795639
3.373500	1.796276
3.374000	1.795957
3.374500	1.795639
3.375000	1.797232
3.375500	1.796276
3.376000	1.795639
3.376500	1.795320
3.377000	1.794683
3.377500	1.795320
3.378000	1.796276
3.378500	1.797232
3.379000	1.796913
3.379500	1.797869
3.380000	1.798824
3.380500	1.796595
3.381000	1.797232
3.381500	1.796595
3.382000	1.797869
3.382500	1.798506
3.383000	1.800098
3.383500	1.800098
3.384000	1.799143
3.384500	1.797869
3.385000	1.797232
3.385500	1.796913
3.386000	1.797232
3.386500	1.797550
3.387000	1.798187
3.387500	1.798506
3.388000	1.796913
3.388500	1.796276
3.389000	1.794046
3.389500	1.795639
3.390000	1.796913
3.390500	1.796913
3.391000	1.797869
3.391500	1.798187
3.392000	1.798506
3.392500	1.797550
3.393000	1.797232
3.393500	1.796913
3.394000	1.797550
3.394500	1.798506
3.395000	1.799143
3.395500	1.799143
3.396000	1.798506
3.396500	1.797869
3.397000	1.797232
3.397500	1.796276
3.398000	1.796276
3.398500	1.795957
3.399000	1.797232
3.399500	1.797550
3.400000	1.797232
3.400500	1.796276
3.401000	1.794683
3.401500	1.794683
3.402000	1.796595
3.402500	1.797550
3.403000	1.797232
3.403500	1.798506
3.404000	1.799143
3.404500	1.798187
3.405000	1.797550
3.405500	1.797550
3.406000	1.797550
3.406500	1.797550
3.407000	1.799780
3.407500	1.800098
3.408000	1.799780
3.408500	1.799143
3.409000	1.797550
3.409500	1.797232
3.410000	1.796913
3.410500	1.796913
3.411000	1.796913
3.411500	1.798187
3.412000	1.797550
3.412500	1.797232
3.413000	1.795639
3.413500	1.795002
3.414000	1.795002
3.414500	1.796276
3.415000	1.796913
3.415500	1.797869
3.416000	1.798187
3.416500	1.798824
3.417000	1.797869
3.417500	1.796913
3.418000	1.797869
3.418500	1.797869
3.419000	1.800098
3.419500	1.800736
3.420000	1.799143
3.420500	1.798506
3.421000	1.796913
3.421500	1.797550
3.422000	1.797232
3.422500	1.796913
3.423000	1.797232
3.423500	1.797232
3.424000	1.797232
3.424500	1.797869
3.425000	1.795320
3.425500	1.795320
3.426000	1.795002
3.426500	1.796276
3.427000	1.797232
3.427500	1.797869
3.428000	1.798506
3.428500	1.798187
3.429000	1.797232
3.429500	1.797869
3.430000	1.797232
3.430500	1.798187
3.431000	1.799143
3.431500	1.799461
3.432000	1.799143
3.432500	1.797869
3.433000	1.797232
3.433500	1.797232
3.434000	1.796595
3.434500	1.796595
3.435000	1.797232
3.435500	1.798187
3.436000	1.796913
3.436500	1.797232
3.437000	1.795957
3.437500	1.795002
3.438000	1.795639
3.438500	1.796276
3.439000	1.797232
3.439500	1.798506
3.440000	1.797550
3.440500	1.796913
3.441000	1.797550
3.441500	1.796913
3.442000	1.796595
3.442500	1.796595
3.443000	1.797869
3.443500	1.799461
3.444000	1.798506
3.444500	1.798187
3.445000	1.796595
3.445500	1.796913
3.446000	1.795957
3.446500	1.795639
3.447000	1.796913
3.447500	1.796913
3.448000	1.796595
3.448500	1.796595
3.449000	1.795957
3.449500	1.793728
3.450000	1.794683
3.450500	1.795639
3.451000	1.796595
3.451500	1.796276
3.452000	1.797550
3.452500	1.797232
3.453000	1.797550
3.453500	1.796913
3.454000	1.795639
3.454500	1.796595
3.455000	1.797550
3.455500	1.798824
3.456000	1.799461
3.456500	1.798506
3.457000	1.797232
3.457500	1.796595
3.458000	1.797232
3.458500	1.796276
3.459000	1.796595
3.459500	1.796913
3.460000	1.797550
3.460500	1.796595
3.461000	1.795320
3.461500	1.794046
3.462000	1.793728
3.462500	1.795639
3.463000	1.796595
3.463500	1.797550
3.464000	1.797550
3.464500	1.797869
3.465000	1.796913
3.465500	1.797550
3.466000	1.797232
3.466500	1.796595
3.467000	1.798187
3.467500	1.800098
3.468000	1.800736
3.468500	1.798506
3.469000	1.797232
3.469500	1.796913
3.470000	1.796276
3.470500	1.795639
3.471000	1.796913
3.471500	1.797232
3.472000	1.798187
3.472500	1.797232
3.473000	1.796595
3.473500	1.794683
3.474000	1.794365
3.474500	1.795320
3.475000	1.796276
3.475500	1.797550
3.476000	1.798506
3.476500	1.797232
3.477000	1.798187
3.477500	1.797550
3.478000	1.797232
3.478500	1.796595
3.479000	1.797550
3.479500	1.798824
3.480000	1.799143
3.480500	1.798824
3.481000	1.797869
3.481500	1.796913
3.482000	1.796595
3.482500	1.796276
3.483000	1.796276
3.483500	1.797232
3.484000	1.797869
3.484500	1.797232
3.485000	1.796913
3.485500	1.795639
3.486000	1.794046
3.486500	1.794046
3.487000	1.796595
3.487500	1.796595
3.488000	1.797232
3.488500	1.797550
3.489000	1.797869
3.489500	1.796913
3.490000	1.796595
3.490500	1.796276
3.491000	1.797550
3.491500	1.798187
3.492000	1.799143
3.492500	1.798506
3.493000	1.797550
3.493500	1.797550
3.494000	1.796595
3.494500	1.796913
3.495000	1.796276
3.495500	1.796913
3.496000	1.796913
3.496500	1.797550
3.497000	1.796913
3.497500	1.795957
3.498000	1.795320
3.498500	1.795320
3.499000	1.796913
3.499500	1.796913
3.500000	1.796913
3.500500	1.797232
3.501000	1.797232
3.501500	1.798187
3.502000	1.797869
3.502500	1.796595
3.503000	1.796276
3.503500	1.798187
3.504000	1.799143
3.504500	1.799780
3.505000	1.798187
3.505500	1.797550
3.506000	1.796595
3.506500	1.795957
3.507000	1.795639
3.507500	1.796913
3.508000	1.797232
3.508500	1.797550
3.509000	1.796913
3.509500	1.796595
3.510000	1.795002
3.510500	1.794046
3.511000	1.795320
3.511500	1.796276
3.512000	1.796276
3.512500	1.797869
3.513000	1.797869
3.513500	1.797232
3.514000	1.797232
3.514500	1.795957
3.515000	1.797232
3.515500	1.798187
3.516000	1.799461
3.516500	1.799461
3.517000	1.799143
3.517500	1.798506
3.518000	1.796595
3.518500	1.795957
3.519000	1.795320
3.519500	1.795639
3.520000	1.796595
3.520500	1.796913
3.521000	1.796595
3.521500	1.795957
3.522000	1.793409
3.522500	1.794365
3.523000	1.794683
3.523500	1.796276
3.524000	1.796276
3.524500	1.796276
3.525000	1.796913
3.525500	1.796913
3.526000	1.796913
3.526500	1.795320
3.527000	1.795957
3.527500	1.798187
3.528000	1.798506
3.528500	1.798506
3.529000	1.797550
3.529500	1.796913
3.530000	1.796595
3.530500	1.795957
3.531000	1.796276
3.531500	1.795957
3.532000	1.795957
3.532500	1.796913
3.533000	1.796913
3.533500	1.795639
3.534000	1.794683
3.534500	1.794046
3.535000	1.795320
3.535500	1.795957
3.536000	1.796913
3.536500	1.797550
3.537000	1.798187
3.537500	1.797869
3.538000	1.797550
3.538500	1.796595
3.539000	1.796595
3.539500	1.797869
3.540000	1.798506
3.540500	1.799143
3.541000	1.798824
3.541500	1.797869
3.542000	1.797232
3.542500	1.796913
3.543000	1.796913
3.543500	1.795957
3.544000	1.797232
3.544500	1.797232
3.545000	1.798187
3.545500	1.797232
3.546000	1.795320
3.546500	1.794683
3.547000	1.794365
3.547500	1.796276
3.548000	1.796913
3.548500	1.797869
3.549000	1.796913
3.549500	1.798187
3.550000	1.797550
3.550500	1.796595
3.551000	1.796595
3.551500	1.796913
3.552000	1.798187
3.552500	1.800098
3.553000	1.798506
3.553500	1.799143
3.554000	1.796913
3.554500	1.795957
3.555000	1.795639
3.555500	1.796595
3.556000	1.796276
3.556500	1.796913
3.557000	1.797869
3.557500	1.796913
3.558000	1.796276
3.558500	1.794683
3.559000	1.794683
3.559500	1.795957
3.560000	1.796913
3.560500	1.797550
3.561000	1.797869
3.561500	1.797869
3.562000	1.797232
3.562500	1.796595
3.563000	1.796913
3.563500	1.795957
3.564000	1.797869
3.564500	1.798824
3.565000	1.798824
3.565500	1.799143
3.566000	1.796913
3.566500	1.796595
3.567000	1.796595
3.567500	1.796913
3.568000	1.795957
3.568500	1.796913
3.569000	1.796595
3.569500	1.797550
3.570000	1.796276
3.570500	1.794683
3.571000	1.795002
3.571500	1.794365
3.572000	1.795639
3.572500	1.795957
3.573000	1.797869
3.573500	1.797232
3.574000	1.796913
3.574500	1.796913
3.575000	1.795639
3.575500	1.796276
3.576000	1.796913
3.576500	1.797869
3.577000	1.798824
3.577500	1.798506
3.578000	1.798187
3.578500	1.796595
3.579000	1.796595
3.579500	1.795957
3.580000	1.795002
3.580500	1.795639
3.581000	1.795639
3.581500	1.796913
3.582000	1.796276
3.582500	1.794046
3.583000	1.794365
3.583500	1.794365
3.584000	1.795639
3.584500	1.795639
3.585000	1.796276
3.585500	1.797232
3.586000	1.797232
3.586500	1.797232
3.587000	1.796913
3.587500	1.796276
3.588000	1.796913
3.588500	1.797550
3.589000	1.799143
3.589500	1.798506
3.590000	1.798824
3.590500	1.797232
3.591000	1.796913
3.591500	1.796913
3.592000	1.796595
3.592500	1.796595
3.593000	1.796595
3.593500	1.797550
3.594000	1.797550
3.594500	1.795957
3.595000	1.794365
3.595500	1.794046
3.596000	1.795002
3.596500	1.796276
3.597000	1.797232
3.597500	1.797232
3.598000	1.797869
3.598500	1.797550
3.599000	1.797232
3.599500	1.796595
3.600000	1.796595
3.600500	1.797550
3.601000	1.798506
3.601500	1.800736
3.602000	1.799461
3.602500	1.798506
3.603000	1.798187
3.603500	1.797869
3.604000	1.797232
3.604500	1.796276
3.605000	1.797550
3.605500	1.797550
3.606000	1.798187
3.606500	1.797550
3.607000	1.795957
3.607500	1.795320
3.608000	1.795002
3.608500	1.795957
3.609000	1.797232
3.609500	1.797550
3.610000	1.797869
3.610500	1.798506
3.611000	1.797550
3.611500	1.797550
3.612000	1.796913
3.612500	1.797550
3.613000	1.798187
3.613500	1.799143
3.614000	1.799780
3.614500	1.799461
3.615000	1.797869
3.615500	1.797232
3.616000	1.796595
3.616500	1.796913
3.617000	1.797232
3.617500	1.797869
3.618000	1.798506
3.618500	1.797869
3.619000	1.797232
3.619500	1.795320
3.620000	1.795639
3.620500	1.796595
3.621000	1.796595
3.621500	1.797232
3.622000	1.798187
3.622500	1.798187
3.623000	1.797869
3.623500	1.797869
3.624000	1.797232
3.624500	1.797232
3.625000	1.798824
3.625500	1.798824
3.626000	1.800417
3.626500	1.798506
3.627000	1.797550
3.627500	1.798506
3.628000	1.797232
3.628500	1.797550
3.629000	1.797550
3.629500	1.797232
3.630000	1.797550
3.630500	1.798187
3.631000	1.797550
3.631500	1.795639
3.632000	1.795639
3.632500	1.796276
3.633000	1.796913
3.633500	1.798187
3.634000	1.797869
3.634500	1.798824
3.635000	1.799143
3.635500	1.797232
3.636000	1.797550
3.636500	1.797232
3.637000	1.797550
3.637500	1.799143
3.638000	1.800417
3.638500	1.800098
3.639000	1.799461
3.639500	1.798187
3.640000	1.798187
3.640500	1.796913
3.641000	1.796595
3.641500	1.796913
3.642000	1.797869
3.642500	1.798187
3.643000	1.796913
3.643500	1.796595
3.644000	1.795320
3.644500	1.794683
3.645000	1.796276
3.645500	1.796595
3.646000	1.797550
3.646500	1.798506
3.647000	1.798824
3.647500	1.798187
3.648000	1.798187
3.648500	1.797550
3.649000	1.797232
3.649500	1.798506
3.650000	1.799461
3.650500	1.800736
3.651000	1.800098
3.651500	1.797869
3.652000	1.796913
3.652500	1.796595
3.653000	1.796595
3.653500	1.796913
3.654000	1.797232
3.654500	1.797232
3.655000	1.797550
3.655500	1.796276
3.656000	1.795320
3.656500	1.794683
3.657000	1.795639
3.657500	1.795957
3.658000	1.796595
3.658500	1.797232
3.659000	1.798506
3.659500	1.797869
3.660000	1.797550
3.660500	1.796276
3.661000	1.796913
3.661500	1.797869
3.662000	1.799461
3.662500	1.799780
3.663000	1.800417
3.663500	1.798824
3.664000	1.796913
3.664500	1.797232
3.665000	1.796595
3.665500	1.796595
3.666000	1.796913
3.666500	1.797550
3.667000	1.796913
3.667500	1.796595
3.668000	1.795639
3.668500	1.794365
3.669000	1.794683
3.669500	1.795320
3.670000	1.796595
3.670500	1.796913
3.671000	1.798187
3.671500	1.797550
3.672000	1.796913
3.672500	1.796595
3.673000	1.796595
3.673500	1.797232
3.674000	1.797869
3.674500	1.799461
3.675000	1.799143
3.675500	1.798824
3.676000	1.798187
3.676500	1.796913
3.677000	1.796595
3.677500	1.797550
3.678000	1.796595
3.678500	1.796913
3.679000	1.797232
3.679500	1.796595
3.680000	1.796913
3.680500	1.794683
3.681000	1.794365
3.681500	1.795320
3.682000	1.796276
3.682500	1.797550
3.683000	1.796913
3.683500	1.796913
3.684000	1.797550
3.684500	1.796595
3.685000	1.796913
3.685500	1.796276
3.686000	1.796276
3.686500	1.798187
3.687000	1.799461
3.687500	1.799780
3.688000	1.797869
3.688500	1.796913
3.689000	1.797550
3.689500	1.796595
3.690000	1.795957
3.690500	1.796595
3.691000	1.797550
3.691500	1.797232
3.692000	1.796913
3.692500	1.796276
3.693000	1.793728
3.693500	1.794683
3.694000	1.795320
3.694500	1.795957
3.695000	1.797550
3.695500	1.796913
3.696000	1.797869
3.696500	1.796913
3.697000	1.797232
3.697500	1.795639
3.698000	1.796913
3.698500	1.797550
3.699000	1.798824
3.699500	1.799780
3.700000	1.798824
3.700500	1.797869
3.701000	1.796913
3.701500	1.796595
3.702000	1.796276
3.702500	1.795957
3.703000	1.796595
3.703500	1.797232
3.704000	1.797869
3.704500	1.796913
3.705000	1.795639
3.705500	1.794683
3.706000	1.795002
3.706500	1.794683
3.707000	1.796913
3.707500	1.797232
3.708000	1.797232
3.708500	1.797550
3.709000	1.797869
3.709500	1.796913
3.710000	1.796913
3.710500	1.797869
3.711000	1.798187
3.711500	1.799143
3.712000	1.798824
3.712500	1.796913
3.713000	1.796595
3.713500	1.796276
3.714000	1.795957
3.714500	1.796276
3.715000	1.796595
3.715500	1.797232
3.716000	1.796913
3.716500	1.796595
3.717000	1.796276
3.717500	1.795320
3.718000	1.794683
3.718500	1.796276
3.719000	1.796595
3.719500	1.797550
3.720000	1.798187
3.720500	1.798187
3.721000	1.797869
3.721500	1.797869
3.722000	1.796595
3.722500	1.796595
3.723000	1.798187
3.723500	1.799780
3.724000	1.800098
3.724500	1.799143
3.725000	1.798187
3.725500	1.797869
3.726000	1.796595
3.726500	1.796913
3.727000	1.797232
3.727500	1.797550
3.728000	1.797869
3.728500	1.797869
3.729000	1.796913
3.729500	1.796276
3.730000	1.795002
3.730500	1.795320
3.731000	1.796913
3.731500	1.796595
3.732000	1.798187
3.732500	1.798824
3.733000	1.799143
3.733500	1.797869
3.734000	1.797869
3.734500	1.797869
3.735000	1.797232
3.735500	1.799461
3.736000	1.800417
3.736500	1.800417
3.737000	1.799143
3.737500	1.797232
3.738000	1.797869
3.738500	1.796595
3.739000	1.797232
3.739500	1.797550
3.740000	1.797869
3.740500	1.797869
3.741000	1.797869
3.741500	1.796913
3.742000	1.796276
3.742500	1.795320
3.743000	1.796595
3.743500	1.797869
3.744000	1.798506
3.744500	1.798824
3.745000	1.798824
3.745500	1.798187
3.746000	1.797550
3.746500	1.797869
3.747000	1.797550
3.747500	1.799143
3.748000	1.800098
3.748500	1.800417
3.749000	1.799143
3.749500	1.798824
3.750000	1.797550
3.750500	1.797232
3.751000	1.796595
3.751500	1.797232
3.752000	1.797232
3.752500	1.798506
3.753000	1.798824
3.753500	1.797232
3.754000	1.795320
3.754500	1.795002
3.755000	1.795002
3.755500	1.796595
3.756000	1.798187
3.756500	1.798187
3.757000	1.798187
3.757500	1.797550
3.758000	1.797869
3.758500	1.797869
3.759000	1.796913
3.759500	1.797550
3.760000	1.799780
3.760500	1.800098
3.761000	1.800098
3.761500	1.798506
3.762000	1.798187
3.762500	1.797550
3.763000	1.797232
3.763500	1.796913
3.764000	1.797232
3.764500	1.798506
3.765000	1.799143
3.765500	1.797869
3.766000	1.797232
3.766500	1.794683
3.767000	1.795320
3.767500	1.796913
3.768000	1.796913
3.768500	1.796913
3.769000	1.797550
3.769500	1.798824
3.770000	1.797869
3.770500	1.798187
3.771000	1.797232
3.771500	1.797232
3.772000	1.798506
3.772500	1.799461
3.773000	1.799780
3.773500	1.799780
3.774000	1.797550
3.774500	1.798187
3.775000	1.797869
3.775500	1.796913
3.776000	1.797232
3.776500	1.797550
3.777000	1.799143
3.777500	1.796276
3.778000	1.797869
3.778500	1.795639
3.779000	1.795002
3.779500	1.796276
3.780000	1.797550
3.780500	1.798187
3.781000	1.798506
3.781500	1.798506
3.782000	1.798824
3.782500	1.798187
3.783000	1.797869
3.783500	1.797869
3.784000	1.798187
3.784500	1.799780
3.785000	1.800736
3.785500	1.799780
3.786000	1.799143
3.786500	1.798506
3.787000	1.797869
3.787500	1.797550
3.788000	1.797550
3.788500	1.798187
3.789000	1.797869
3.789500	1.799461
3.790000	1.798187
3.790500	1.796913
3.791000	1.796276
3.791500	1.795320
3.792000	1.796913
3.792500	1.798187
3.793000	1.798506
3.793500	1.798824
3.794000	1.799143
3.794500	1.797869
3.795000	1.798187
3.795500	1.797550
3.796000	1.797232
3.796500	1.799143
3.797000	1.801373
3.797500	1.800098
3.798000	1.799461
3.798500	1.798824
3.799000	1.798187
3.799500	1.797232
3.800000	1.796913
3.800500	1.796913
3.801000	1.797869
3.801500	1.798824
3.802000	1.798506
3.802500	1.796276
3.803000	1.795957
3.803500	1.795002
3.804000	1.796595
3.804500	1.797550
3.805000	1.797550
3.805500	1.798187
3.806000	1.798506
3.806500	1.798824
3.807000	1.798506
3.807500	1.798187
3.808000	1.796913
3.808500	1.799461
3.809000	1.800098
3.809500	1.801054
3.810000	1.799143
3.810500	1.798187
3.811000	1.797550
3.811500	1.796913
3.812000	1.796595
3.812500	1.797232
3.813000	1.797232
3.813500	1.798187
3.814000	1.798824
3.814500	1.796276
3.815000	1.795639
3.815500	1.795639
3.816000	1.796595
3.816500	1.796913
3.817000	1.796913
3.817500	1.798187
3.818000	1.799143
3.818500	1.798506
3.819000	1.798187
3.819500	1.798187
3.820000	1.797869
3.820500	1.797550
3.821000	1.799143
3.821500	1.801054
3.822000	1.798824
3.822500	1.797550
3.823000	1.797232
3.823500	1.797232
3.824000	1.797869
3.824500	1.796913
3.825000	1.797232
3.825500	1.798506
3.826000	1.796913
3.826500	1.797232
3.827000	1.795957
3.827500	1.794683
3.828000	1.795639
3.828500	1.797869
3.829000	1.796913
3.829500	1.797869
3.830000	1.798187
3.830500	1.798506
3.831000	1.796913
3.831500	1.797550
3.832000	1.796595
3.832500	1.798187
3.833000	1.799143
3.833500	1.799780
3.834000	1.799461
3.834500	1.798187
3.835000	1.797550
3.835500	1.796595
3.836000	1.796276
3.836500	1.796276
3.837000	1.797232
3.837500	1.797869
3.838000	1.797869
3.838500	1.796595
3.839000	1.795002
3.839500	1.794046
3.840000	1.796595
3.840500	1.796595
3.841000	1.797232
3.841500	1.797869
3.842000	1.798187
3.842500	1.798187
3.843000	1.797869
3.843500	1.796595
3.844000	1.796913
3.844500	1.798506
3.845000	1.799461
3.845500	1.799780
3.846000	1.798506
3.846500	1.797869
3.847000	1.797550
3.847500	1.796595
3.848000	1.796276
3.848500	1.796595
3.849000	1.796913
3.849500	1.797232
3.850000	1.797232
3.850500	1.796595
3.851000	1.795639
3.851500	1.794046
3.852000	1.794683
3.852500	1.796276
3.853000	1.797232
3.853500	1.797869
3.854000	1.798187
3.854500	1.798506
3.855000	1.797869
3.855500	1.797869
3.856000	1.796913
3.856500	1.797869
3.857000	1.798187
3.857500	1.799143
3.858000	1.799461
3.858500	1.798824
3.859000	1.796913
3.859500	1.796913
3.860000	1.796276
3.860500	1.795957
3.861000	1.796595
3.861500	1.796595
3.862000	1.797232
3.862500	1.797232
3.863000	1.795320
3.863500	1.794365
3.864000	1.794683
3.864500	1.796595
3.865000	1.797550
3.865500	1.797550
3.866000	1.797550
3.866500	1.798187
3.867000	1.798824
3.867500	1.797232
3.868000	1.797232
3.868500	1.797869
3.869000	1.798824
3.869500	1.800098
3.870000	1.800417
3.870500	1.798506
3.871000	1.798187
3.871500	1.797232
3.872000	1.797232
3.872500	1.796276
3.873000	1.796913
3.873500	1.797869
3.874000	1.799143
3.874500	1.797550
3.875000	1.796276
3.875500	1.795002
3.876000	1.795320
3.876500	1.795639
3.877000	1.798506
3.877500	1.797232
3.878000	1.798187
3.878500	1.798187
3.879000	1.797869
3.879500	1.797232
3.880000	1.796913
3.880500	1.796913
3.881000	1.798824
3.881500	1.800417
3.882000	1.800736
3.882500	1.799780
3.883000	1.796913
3.883500	1.797550
3.884000	1.795957
3.884500	1.797232
3.885000	1.795957
3.885500	1.796913
3.886000	1.797550
3.886500	1.798187
3.887000	1.795957
3.887500	1.794365
3.888000	1.795002
3.888500	1.796276
3.889000	1.796595
3.889500	1.797232
3.890000	1.798187
3.890500	1.796913
3.891000	1.797869
3.891500	1.797232
3.892000	1.796913
3.892500	1.796913
3.893000	1.797869
3.893500	1.798824
3.894000	1.799780
3.894500	1.800098
3.895000	1.797869
3.895500	1.796595
3.896000	1.795957
3.896500	1.796276
3.897000	1.795957
3.897500	1.796595
3.898000	1.797550
3.898500	1.797550
3.899000	1.797232
3.899500	1.795957
3.900000	1.795639
3.900500	1.795320
3.901000	1.796913
3.901500	1.797232
3.902000	1.797550
3.902500	1.798187
3.903000	1.797550
3.903500	1.797550
3.904000	1.797550
3.904500	1.795957
3.905000	1.796595
3.905500	1.798506
3.906000	1.800098
3.906500	1.798824
3.907000	1.797232
3.907500	1.796913
3.908000	1.796595
3.908500	1.796913
3.909000	1.796595
3.909500	1.795639
3.910000	1.797869
3.910500	1.797550
3.911000	1.797232
3.911500	1.795320
3.912000	1.794046
3.912500	1.794365
3.913000	1.795639
3.913500	1.797232
3.914000	1.796276
3.914500	1.797550
3.915000	1.797550
3.915500	1.797232
3.916000	1.796595
3.916500	1.796276
3.917000	1.796276
3.917500	1.801054
3.918000	1.799143
3.918500	1.799780
3.919000	1.798824
3.919500	1.797550
3.920000	1.797550
3.920500	1.796276
3.921000	1.795639
3.921500	1.795320
3.922000	1.795957
3.922500	1.796595
3.923000	1.796913
3.923500	1.795957
3.924000	1.794365
3.924500	1.794365
3.925000	1.794683
3.925500	1.795957
3.926000	1.796595
3.926500	1.796913
3.927000	1.797869
3.927500	1.797869
3.928000	1.796913
3.928500	1.795639
3.929000	1.795320
3.929500	1.796913
3.930000	1.798824
3.930500	1.799143
3.931000	1.799143
3.931500	1.797232
3.932000	1.797232
3.932500	1.796276
3.933000	1.795639
3.933500	1.796276
3.934000	1.796595
3.934500	1.797232
3.935000	1.797232
3.935500	1.796595
3.936000	1.795320
3.936500	1.795002
3.937000	1.794046
3.937500	1.793728
3.938000	1.796276
3.938500	1.796595
3.939000	1.797869
3.939500	1.796913
3.940000	1.797232
3.940500	1.796595
3.941000	1.796913
3.941500	1.796913
3.942000	1.796913
3.942500	1.798187
3.943000	1.799143
3.943500	1.798506
3.944000	1.797550
3.944500	1.796913
3.945000	1.796595
3.945500	1.795957
3.946000	1.795002
3.946500	1.795639
3.947000	1.796595
3.947500	1.797550
3.948000	1.797232
3.948500	1.795957
3.949000	1.794365
3.949500	1.793728
3.950000	1.795002
3.950500	1.795957
3.951000	1.796913
3.951500	1.796913
3.952000	1.797232
3.952500	1.797550
3.953000	1.796913
3.953500	1.796595
3.954000	1.796276
3.954500	1.797232
3.955000	1.798187
3.955500	1.799143
3.956000	1.798824
3.956500	1.797232
3.957000	1.797232
3.957500	1.796276
3.958000	1.796276
3.958500	1.795639
3.959000	1.796913
3.959500	1.797550
3.960000	1.797550
3.960500	1.796595
3.961000	1.795320
3.961500	1.795320
3.962000	1.795320
3.962500	1.795957
3.963000	1.796913
3.963500	1.798187
3.964000	1.798824
3.964500	1.798506
3.965000	1.797550
3.965500	1.797550
3.966000	1.796913
3.966500	1.796913
3.967000	1.798187
3.967500	1.800098
3.968000	1.799143
3.968500	1.798506
3.969000	1.797869
3.969500	1.797232
3.970000	1.796913
3.970500	1.796595
3.971000	1.797232
3.971500	1.797232
3.972000	1.798506
3.972500	1.797869
3.973000	1.796276
3.973500	1.795639
3.974000	1.794365
3.974500	1.796595
3.975000	1.796913
3.975500	1.797869
3.976000	1.798506
3.976500	1.797869
3.977000	1.798506
3.977500	1.797232
3.978000	1.797550
3.978500	1.798187
3.979000	1.798187
3.979500	1.800736
3.980000	1.800417
3.980500	1.798506
3.981000	1.797869
3.981500	1.796595
3.982000	1.797232
3.982500	1.796276
3.983000	1.796595
3.983500	1.797869
3.984000	1.797869
3.984500	1.798187
3.985000	1.797232
3.985500	1.795957
3.986000	1.795639
3.986500	1.795639
3.987000	1.796276
3.987500	1.797232
3.988000	1.798506
3.988500	1.797869
3.989000	1.798824
3.989500	1.798187
3.990000	1.797869
3.990500	1.797232
3.991000	1.798187
3.991500	1.799461
3.992000	1.801373
3.992500	1.799780
3.993000	1.799461
3.993500	1.797232
3.994000	1.797550
3.994500	1.796913
3.995000	1.796595
3.995500	1.796913
3.996000	1.797869
3.996500	1.798824
3.997000	1.797869
3.997500	1.796913
3.998000	1.795320
3.998500	1.794683
3.999000	1.796276
3.999500	1.796595
4.000000	1.797232
4.000500	1.797869
4.001000	1.798824
4.001500	1.797869
4.002000	1.797232
4.002500	1.796913
4.003000	1.797232
4.003500	1.798187
4.004000	1.799461
4.004500	1.799780
4.005000	1.799461
4.005500	1.798506
4.006000	1.797869
4.006500	1.797550
4.007000	1.796913
4.007500	1.796913
4.008000	1.796913
4.008500	1.798506
4.009000	1.798187
4.009500	1.797232
4.010000	1.796595
4.010500	1.795639
4.011000	1.796595
4.011500	1.796913
4.012000	1.798187
4.012500	1.797232
4.013000	1.798506
4.013500	1.798506
4.014000	1.798506
4.014500	1.796913
4.015000	1.796913
4.015500	1.798187
4.016000	1.799143
4.016500	1.799461
4.017000	1.799780
4.017500	1.798824
4.018000	1.798506
4.018500	1.796913
4.019000	1.796913
4.019500	1.797550
4.020000	1.796595
4.020500	1.797550
4.021000	1.798506
4.021500	1.798187
4.022000	1.796276
4.022500	1.795002
4.023000	1.795002
4.023500	1.796276
4.024000	1.797232
4.024500	1.797869
4.025000	1.797550
4.025500	1.798187
4.026000	1.797869
4.026500	1.797550
4.027000	1.795957
4.027500	1.797232
4.028000	1.798506
4.028500	1.799461
4.029000	1.799143
4.029500	1.799143
4.030000	1.797869
4.030500	1.796913
4.031000	1.796276
4.031500	1.796276
4.032000	1.796595
4.032500	1.797232
4.033000	1.797232
4.033500	1.797232
4.034000	1.796595
4.034500	1.795002
4.035000	1.794365
4.035500	1.796276
4.036000	1.796595
4.036500	1.797550
4.037000	1.797869
4.037500	1.797550
4.038000	1.797869
4.038500	1.796595
4.039000	1.797232
4.039500	1.797550
4.040000	1.798506
4.040500	1.799461
4.041000	1.799780
4.041500	1.798506
4.042000	1.797869
4.042500	1.797232
4.043000	1.796276
4.043500	1.796913
4.044000	1.796913
4.044500	1.798187
4.045000	1.797869
4.045500	1.797232
4.046000	1.796595
4.046500	1.795639
4.047000	1.794683
4.047500	1.795639
4.048000	1.796276
4.048500	1.797869
4.049000	1.797869
4.049500	1.797550
4.050000	1.797869
4.050500	1.796913
4.051000	1.795957
4.051500	1.796595
4.052000	1.797869
4.052500	1.799143
4.053000	1.799143
4.053500	1.798187
4.054000	1.797550
4.054500	1.796913
4.055000	1.795639
4.055500	1.795957
4.056000	1.797232
4.056500	1.796595
4.057000	1.799143
4.057500	1.797869
4.058000	1.796595
4.058500	1.795002
4.059000	1.794683
4.059500	1.795320
4.060000	1.795639
4.060500	1.797232
4.061000	1.797232
4.061500	1.797550
4.062000	1.798187
4.062500	1.797232
4.063000	1.797550
4.063500	1.796913
4.064000	1.796913
4.064500	1.797869
4.065000	1.799780
4.065500	1.799461
4.066000	1.798824
4.066500	1.797550
4.067000	1.797550
4.067500	1.797232
4.068000	1.796595
4.068500	1.796595
4.069000	1.796276
4.069500	1.798187
4.070000	1.797232
4.070500	1.795639
4.071000	1.795002
4.071500	1.795002
4.072000	1.795639
4.072500	1.796913
4.073000	1.797869
4.073500	1.797232
4.074000	1.797232
4.074500	1.797550
4.075000	1.796913
4.075500	1.796276
4.076000	1.797232
4.076500	1.798506
4.077000	1.799143
4.077500	1.799143
4.078000	1.798187
4.078500	1.796595
4.079000	1.796913
4.079500	1.796276
4.080000	1.796595
4.080500	1.795957
4.081000	1.796595
4.081500	1.797550
4.082000	1.796913
4.082500	1.795320
4.083000	1.794365
4.083500	1.794365
4.084000	1.795320
4.084500	1.795639
4.085000	1.797550
4.085500	1.797869
4.086000	1.796913
4.086500	1.796913
4.087000	1.796913
4.087500	1.796595
4.088000	1.796276
4.088500	1.797869
4.089000	1.799143
4.089500	1.798824
4.090000	1.798187
4.090500	1.796595
4.091000	1.796595
4.091500	1.796595
4.092000	1.795320
4.092500	1.795957
4.093000	1.796913
4.093500	1.796595
4.094000	1.796913
4.094500	1.795639
4.095000	1.793409
4.095500	1.794365
4.096000	1.795002
4.096500	1.795320
4.097000	1.796913
4.097500	1.800098
4.098000	1.797232
4.098500	1.796913
4.099000	1.796913
4.099500	1.796276
4.100000	1.796595
4.100500	1.796276
4.101000	1.797232
4.101500	1.798824
4.102000	1.797869
4.102500	1.797232
4.103000	1.796595
4.103500	1.796595
4.104000	1.795639
4.104500	1.796913
4.105000	1.796276
4.105500	1.796595
4.106000	1.796913
4.106500	1.796913
4.107000	1.795002
4.107500	1.794046
4.108000	1.794683
4.108500	1.796276
4.109000	1.796595
4.109500	1.797232
4.110000	1.798187
4.110500	1.798187
4.111000	1.797550
4.111500	1.796913
4.112000	1.796595
4.112500	1.797869
4.113000	1.798824
4.113500	1.799780
4.114000	1.799143
4.114500	1.797869
4.115000	1.797232
4.115500	1.795957
4.116000	1.795957
4.116500	1.795957
4.117000	1.796913
4.117500	1.797232
4.118000	1.797869
4.118500	1.796913
4.119000	1.795002
4.119500	1.795320
4.120000	1.794683
4.120500	1.794683
4.121000	1.795957
4.121500	1.796913
4.122000	1.797550
4.122500	1.796913
4.123000	1.797232
4.123500	1.797550
4.124000	1.796595
4.124500	1.795957
4.125000	1.797550
4.125500	1.798187
4.126000	1.798824
4.126500	1.798506
4.127000	1.797232
4.127500	1.796276
4.128000	1.795957
4.128500	1.795957
4.129000	1.796595
4.129500	1.796595
4.130000	1.797232
4.130500	1.796913
4.131000	1.796595
4.131500	1.794683
4.132000	1.793728
4.132500	1.794365
4.133000	1.796913
4.133500	1.796595
4.134000	1.797232
4.134500	1.797550
4.135000	1.796913
4.135500	1.796913
4.136000	1.795320
4.136500	1.796276
4.137000	1.796595
4.137500	1.797869
4.138000	1.798824
4.138500	1.798824
4.139000	1.796595
4.139500	1.796276
4.140000	1.795320
4.140500	1.795320
4.141000	1.795639
4.141500	1.796276
4.142000	1.796276
4.142500	1.796913
4.143000	1.796276
4.143500	1.794365
4.144000	1.793409
4.144500	1.793409
4.145000	1.794365
4.145500	1.795639
4.146000	1.795639
4.146500	1.795639
4.147000	1.796913
4.147500	1.796276
4.148000	1.796595
4.148500	1.795957
4.149000	1.795639
4.149500	1.795957
4.150000	1.798187
4.150500	1.798824
4.151000	1.797550
4.151500	1.797550
4.152000	1.796276
4.152500	1.795320
4.153000	1.795639
4.153500	1.795639
4.154000	1.795957
4.154500	1.796276
4.155000	1.796913
4.155500	1.795957
4.156000	1.795639
4.156500	1.794683
4.157000	1.793728
4.157500	1.795002
4.158000	1.795639
4.158500	1.796276
4.159000	1.796276
4.159500	1.796595
4.160000	1.797232
4.160500	1.795957
4.161000	1.795639
4.161500	1.795320
4.162000	1.796595
4.162500	1.798187
4.163000	1.797869
4.163500	1.798824
4.164000	1.797232
4.164500	1.796276
4.165000	1.795639
4.165500	1.795002
4.166000	1.795320
4.166500	1.794683
4.167000	1.796595
4.167500	1.795957
4.168000	1.795957
4.168500	1.794365
4.169000	1.793409
4.169500	1.793728
4.170000	1.795002
4.170500	1.795957
4.171000	1.796595
4.171500	1.796913
4.172000	1.796276
4.172500	1.797232
4.173000	1.796595
4.173500	1.795639
4.174000	1.796276
4.174500	1.796595
4.175000	1.799143
4.175500	1.798824
4.176000	1.797232
4.176500	1.797232
4.177000	1.796913
4.177500	1.795639
4.178000	1.796276
4.178500	1.795639
4.179000	1.796276
4.179500	1.796913
4.180000	1.796595
4.180500	1.795639
4.181000	1.795002
4.181500	1.794365
4.182000	1.794365
4.182500	1.795002
4.183000	1.795639
4.183500	1.796913
4.184000	1.797232
4.184500	1.797232
4.185000	1.796913
4.185500	1.796276
4.186000	1.796276
4.186500	1.795639
4.187000	1.797550
4.187500	1.797869
4.188000	1.798506
4.188500	1.797550
4.189000	1.796595
4.189500	1.795957
4.190000	1.795639
4.190500	1.795320
4.191000	1.796595
4.191500	1.796913
4.192000	1.796276
4.192500	1.796913
4.193000	1.796276
4.193500	1.795002
4.194000	1.795002
4.194500	1.794365
4.195000	1.795320
4.195500	1.796276
4.196000	1.796595
4.196500	1.797232
4.197000	1.797550
4.197500	1.796913
4.198000	1.796276
4.198500	1.796276
4.199000	1.796276
4.199500	1.797550
4.200000	1.798506
4.200500	1.797869
4.201000	1.797232
4.201500	1.796595
4.202000	1.795957
4.202500	1.795639
4.203000	1.795639
4.203500	1.795639
4.204000	1.796276
4.204500	1.796913
4.205000	1.796595
4.205500	1.795320
4.206000	1.794046
4.206500	1.794683
4.207000	1.795002
4.207500	1.796595
4.208000	1.796913
4.208500	1.797550
4.209000	1.796913
4.209500	1.796913
4.210000	1.796595
4.210500	1.795957
4.211000	1.796913
4.211500	1.797550
4.212000	1.799143
4.212500	1.798824
4.213000	1.798506
4.213500	1.796913
4.214000	1.796276
4.214500	1.795320
4.215000	1.795957
4.215500	1.795957
4.216000	1.796913
4.216500	1.796913
4.217000	1.796913
4.217500	1.795957
4.218000	1.795639
4.218500	1.795320
4.219000	1.795320
4.219500	1.796276
4.220000	1.797232
4.220500	1.796595
4.221000	1.796913
4.221500	1.796913
4.222000	1.796913
4.222500	1.795639
4.223000	1.796595
4.223500	1.796913
4.224000	1.798506
4.224500	1.798506
4.225000	1.798187
4.225500	1.797869
4.226000	1.796276
4.226500	1.795639
4.227000	1.795639
4.227500	1.795320
4.228000	1.795639
4.228500	1.796276
4.229000	1.796595
4.229500	1.796276
4.230000	1.794046
4.230500	1.792454
4.231000	1.795002
4.231500	1.795639
4.232000	1.796276
4.232500	1.796595
4.233000	1.796276
4.233500	1.796276
4.234000	1.796595
4.234500	1.795957
4.235000	1.796276
4.235500	1.797550
4.236000	1.798506
4.236500	1.798506
4.237000	1.797232
4.237500	1.797550
4.238000	1.796595
4.238500	1.795957
4.239000	1.795320
4.239500	1.795639
4.240000	1.796276
4.240500	1.796276
4.241000	1.796595
4.241500	1.795639
4.242000	1.794365
4.242500	1.793728
4.243000	1.794046
4.243500	1.795320
4.244000	1.795320
4.244500	1.796595
4.245000	1.796913
4.245500	1.797869
4.246000	1.796595
4.246500	1.795320
4.247000	1.795639
4.247500	1.797232
4.248000	1.797550
4.248500	1.798506
4.249000	1.798824
4.249500	1.797232
4.250000	1.796913
4.250500	1.795639
4.251000	1.795320
4.251500	1.795639
4.252000	1.795320
4.252500	1.796595
4.253000	1.796913
4.253500	1.795957
4.254000	1.795002
4.254500	1.794683
4.255000	1.794046
4.255500	1.795002
4.256000	1.796913
4.256500	1.797232
4.257000	1.796913
4.257500	1.796913
4.258000	1.796276
4.258500	1.795957
4.259000	1.795320
4.259500	1.796276
4.260000	1.797550
4.260500	1.798506
4.261000	1.798506
4.261500	1.797869
4.262000	1.796913
4.262500	1.795957
4.263000	1.795320
4.263500	1.795002
4.264000	1.796595
4.264500	1.796595
4.265000	1.798824
4.265500	1.796913
4.266000	1.795639
4.266500	1.794365
4.267000	1.795320
4.267500	1.795639
4.268000	1.796595
4.268500	1.797232
4.269000	1.798187
4.269500	1.797550
4.270000	1.797869
4.270500	1.797232
4.271000	1.796276
4.271500	1.795957
4.272000	1.796913
4.272500	1.798506
4.273000	1.798824
4.273500	1.798187
4.274000	1.797550
4.274500	1.797232
4.275000	1.796595
4.275500	1.796276
4.276000	1.796276
4.276500	1.797232
4.277000	1.797232
4.277500	1.796913
4.278000	1.796276
4.278500	1.795002
4.279000	1.794365
4.279500	1.794683
4.280000	1.796595
4.280500	1.796913
4.281000	1.797232
4.281500	1.797869
4.282000	1.797232
4.282500	1.796913
4.283000	1.796913
4.283500	1.796276
4.284000	1.797869
4.284500	1.799143
4.285000	1.799461
4.285500	1.799143
4.286000	1.797869
4.286500	1.796913
4.287000	1.796595
4.287500	1.796913
4.288000	1.795957
4.288500	1.796276
4.289000	1.798187
4.289500	1.797232
4.290000	1.796595
4.290500	1.795320
4.291000	1.794683
4.291500	1.795639
4.292000	1.795957
4.292500	1.796913
4.293000	1.797550
4.293500	1.797232
4.294000	1.798187
4.294500	1.796595
4.295000	1.797232
4.295500	1.797232
4.296000	1.798824
4.296500	1.799780
4.297000	1.799143
4.297500	1.799461
4.298000	1.798506
4.298500	1.797232
4.299000	1.796913
4.299500	1.796595
4.300000	1.796276
4.300500	1.798187
4.301000	1.797869
4.301500	1.797550
4.302000	1.796913
4.302500	1.795002
4.303000	1.794683
4.303500	1.795002
4.304000	1.796276
4.304500	1.796913
4.305000	1.797550
4.305500	1.798506
4.306000	1.798506
4.306500	1.798506
4.307000	1.796913
4.307500	1.796913
4.308000	1.797869
4.308500	1.799143
4.309000	1.799780
4.309500	1.799143
4.310000	1.798824
4.310500	1.798187
4.311000	1.797550
4.311500	1.796913
4.312000	1.797232
4.312500	1.798187
4.313000	1.798187
4.313500	1.798824
4.314000	1.797550
4.314500	1.796276
4.315000	1.795320
4.315500	1.795957
4.316000	1.796913
4.316500	1.796913
4.317000	1.798187
4.317500	1.796913
4.318000	1.798506
4.318500	1.798187
4.319000	1.796595
4.319500	1.797550
4.320000	1.797550
4.320500	1.798824
4.321000	1.800098
4.321500	1.799780
4.322000	1.799143
4.322500	1.798506
4.323000	1.797869
4.323500	1.797232
4.324000	1.796595
4.324500	1.797869
4.325000	1.798187
4.325500	1.798187
4.326000	1.798187
4.326500	1.797232
4.327000	1.796276
4.327500	1.795002
4.328000	1.795639
4.328500	1.798187
4.329000	1.798506
4.329500	1.797869
4.330000	1.799461
4.330500	1.798824
4.331000	1.798187
4.331500	1.797869
4.332000	1.798187
4.332500	1.798824
4.333000	1.800098
4.333500	1.801373
4.334000	1.800736
4.334500	1.799461
4.335000	1.799143
4.335500	1.798187
4.336000	1.797869
4.336500	1.797550
4.337000	1.798824
4.337500	1.799143
4.338000	1.798824
4.338500	1.798824
4.339000	1.796913
4.339500	1.796276
4.340000	1.796913
4.340500	1.797550
4.341000	1.798187
4.341500	1.799143
4.342000	1.800098
4.342500	1.799461
4.343000	1.799461
4.343500	1.799143
4.344000	1.799143
4.344500	1.798824
4.345000	1.800736
4.345500	1.801373
4.346000	1.801054
4.346500	1.800417
4.347000	1.799461
4.347500	1.798506
4.348000	1.798187
4.348500	1.798187
4.349000	1.797869
4.349500	1.799143
4.350000	1.799143
4.350500	1.799143
4.351000	1.797550
4.351500	1.795957
4.352000	1.796913
4.352500	1.797550
4.353000	1.798506
4.353500	1.799780
4.354000	1.799780
4.354500	1.799780
4.355000	1.799143
4.355500	1.798506
4.356000	1.799143
4.356500	1.798824
4.357000	1.800417
4.357500	1.801054
4.358000	1.801373
4.358500	1.800417
4.359000	1.799143
4.359500	1.798824
4.360000	1.798506
4.360500	1.797550
4.361000	1.797869
4.361500	1.799143
4.362000	1.798824
4.362500	1.799143
4.363000	1.797232
4.363500	1.796913
4.364000	1.795639
4.364500	1.796913
4.365000	1.797550
4.365500	1.797869
4.366000	1.800098
4.366500	1.798506
4.367000	1.798824
4.367500	1.799143
4.368000	1.797869
4.368500	1.798506
4.369000	1.799143
4.369500	1.800098
4.370000	1.800098
4.370500	1.801054
4.371000	1.799143
4.371500	1.798187
4.372000	1.797869
4.372500	1.797550
4.373000	1.798506
4.373500	1.798187
4.374000	1.798506
4.374500	1.798824
4.375000	1.797550
4.375500	1.796595
4.376000	1.796913
4.376500	1.796913
4.377000	1.797869
4.377500	1.799143
4.378000	1.799143
4.378500	1.798824
4.379000	1.799780
4.379500	1.798824
4.380000	1.797869
4.380500	1.798506
4.381000	1.799461
4.381500	1.800736
4.382000	1.801054
4.382500	1.800417
4.383000	1.799143
4.383500	1.798506
4.384000	1.798187
4.384500	1.797550
4.385000	1.798187
4.385500	1.797550
4.386000	1.799461
4.386500	1.799143
4.387000	1.797550
4.387500	1.797550
4.388000	1.796276
4.388500	1.796595
4.389000	1.797550
4.389500	1.798506
4.390000	1.799461
4.390500	1.799461
4.391000	1.799780
4.391500	1.799461
4.392000	1.799143
4.392500	1.797869
4.393000	1.799143
4.393500	1.801054
4.394000	1.801373
4.394500	1.801054
4.395000	1.800417
4.395500	1.798824
4.396000	1.798506
4.396500	1.798187
4.397000	1.797550
4.397500	1.798506
4.398000	1.798824
4.398500	1.800098
4.399000	1.798506
4.399500	1.798187
4.400000	1.795639
4.400500	1.796276
4.401000	1.796913
4.401500	1.797550
4.402000	1.798824
4.402500	1.798506
4.403000	1.799461
4.403500	1.799143
4.404000	1.798506
4.404500	1.797550
4.405000	1.798824
4.405500	1.799461
4.406000	1.800736
4.406500	1.801054
4.407000	1.802010
4.407500	1.800417
4.408000	1.798187
4.408500	1.797550
4.409000	1.797550
4.409500	1.797869
4.410000	1.798824
4.410500	1.798187
4.411000	1.798187
4.411500	1.797869
4.412000	1.796913
4.412500	1.795957
4.413000	1.795957
4.413500	1.796913
4.414000	1.797550
4.414500	1.798187
4.415000	1.799143
4.415500	1.799461
4.416000	1.799143
4.416500	1.797869
4.417000	1.798187
4.417500	1.798187
4.418000	1.800098
4.418500	1.800736
4.419000	1.800736
4.419500	1.800098
4.420000	1.798506
4.420500	1.797869
4.421000	1.798187
4.421500	1.797550
4.422000	1.797869
4.422500	1.797869
4.423000	1.798824
4.423500	1.799143
4.424000	1.797550
4.424500	1.796276
4.425000	1.796276
4.425500	1.796913
4.426000	1.797550
4.426500	1.798824
4.427000	1.798824
4.427500	1.799461
4.428000	1.799143
4.428500	1.798187
4.429000	1.798506
4.429500	1.798506
4.430000	1.799143
4.430500	1.800736
4.431000	1.800417
4.431500	1.800417
4.432000	1.799143
4.432500	1.798506
4.433000	1.797869
4.433500	1.797550
4.434000	1.797550
4.434500	1.798506
4.435000	1.797869
4.435500	1.798506
4.436000	1.797550
4.436500	1.797550
4.437000	1.796595
4.437500	1.796913
4.438000	1.797550
4.438500	1.798506
4.439000	1.799143
4.439500	1.800098
4.440000	1.799461
4.440500	1.799143
4.441000	1.798187
4.441500	1.798506
4.442000	1.799143
4.442500	1.799780
4.443000	1.801054
4.443500	1.801054
4.444000	1.799143
4.444500	1.799143
4.445000	1.798187
4.445500	1.798187
4.446000	1.798187
4.446500	1.797869
4.447000	1.798824
4.447500	1.798506
4.448000	1.798187
4.448500	1.798187
4.449000	1.796276
4.449500	1.796595
4.450000	1.796276
4.450500	1.798506
4.451000	1.798506
4.451500	1.799143
4.452000	1.799780
4.452500	1.798824
4.453000	1.798506
4.453500	1.798187
4.454000	1.798824
4.454500	1.800417
4.455000	1.801691
4.455500	1.801691
4.456000	1.801373
4.456500	1.799461
4.457000	1.798506
4.457500	1.798187
4.458000	1.797869
4.458500	1.798187
4.459000	1.798187
4.459500	1.799461
4.460000	1.800098
4.460500	1.797869
4.461000	1.796913
4.461500	1.796276
4.462000	1.796913
4.462500	1.798187
4.463000	1.798824
4.463500	1.799461
4.464000	1.800417
4.464500	1.799780
4.465000	1.798824
4.465500	1.799461
4.466000	1.798506
4.466500	1.798824
4.467000	1.800098
4.467500	1.800417
4.468000	1.800417
4.468500	1.800098
4.469000	1.798824
4.469500	1.798506
4.470000	1.798187
4.470500	1.798187
4.471000	1.798824
4.471500	1.798187
4.472000	1.798824
4.472500	1.798187
4.473000	1.797550
4.473500	1.796276
4.474000	1.795957
4.474500	1.796913
4.475000	1.798824
4.475500	1.798187
4.476000	1.799461
4.476500	1.799143
4.477000	1.798824
4.477500	1.798187
4.478000	1.797232
4.478500	1.797869
4.479000	1.798824
4.479500	1.801054
4.480000	1.800417
4.480500	1.800417
4.481000	1.798824
4.481500	1.798187
4.482000	1.797232
4.482500	1.797550
4.483000	1.798187
4.483500	1.798187
4.484000	1.799780
4.484500	1.798824
4.485000	1.797869
4.485500	1.796595
4.486000	1.796276
4.486500	1.796913
4.487000	1.797232
4.487500	1.799143
4.488000	1.798187
4.488500	1.799780
4.489000	1.798824
4.489500	1.799143
4.490000	1.798506
4.490500	1.798506
4.491000	1.798824
4.491500	1.800098
4.492000	1.801373
4.492500	1.800736
4.493000	1.800098
4.493500	1.799143
4.494000	1.798187
4.494500	1.797550
4.495000	1.797550
4.495500	1.798506
4.496000	1.798187
4.496500	1.798824
4.497000	1.798824
4.497500	1.766333
4.498000	1.795639
4.498500	1.795639
4.499000	1.797232
4.499500	1.798187
4.500000	1.798506
4.500500	1.798824
4.501000	1.799143
4.501500	1.798824
4.502000	1.798187
4.502500	1.797550
4.503000	1.798187
4.503500	1.798824
4.504000	1.800417
4.504500	1.801054
4.505000	1.801373
4.505500	1.799780
4.506000	1.798506
4.506500	1.797869
4.507000	1.797550
4.507500	1.796913
4.508000	1.797232
4.508500	1.798187
4.509000	1.798187
4.509500	1.797550
4.510000	1.796595
4.510500	1.795320
4.511000	1.795639
4.511500	1.796276
4.512000	1.797869
4.512500	1.798506
4.513000	1.798506
4.513500	1.798824
4.514000	1.797869
4.514500	1.798187
4.515000	1.798506
4.515500	1.798506
4.516000	1.800098
4.516500	1.800098
4.517000	1.800098
4.517500	1.799143
4.518000	1.797869
4.518500	1.797869
4.519000	1.797550
4.519500	1.796913
4.520000	1.797550
4.520500	1.797869
4.521000	1.798187
4.521500	1.797869
4.522000	1.796595
4.522500	1.795320
4.523000	1.795639
4.523500	1.796276
4.524000	1.797550
4.524500	1.797869
4.525000	1.798506
4.525500	1.797869
4.526000	1.798506
4.526500	1.795957
4.527000	1.797869
4.527500	1.797232
4.528000	1.799780
4.528500	1.800736
4.529000	1.799461
4.529500	1.798506
4.530000	1.797550
4.530500	1.796913
4.531000	1.796595
4.531500	1.796913
4.532000	1.798187
4.532500	1.798187
4.533000	1.797550
4.533500	1.797550
4.534000	1.795639
4.534500	1.795957
4.535000	1.795320
4.535500	1.796276
4.536000	1.797550
4.536500	1.798187
4.537000	1.798506
4.537500	1.798824
4.538000	1.798506
4.538500	1.797869
4.539000	1.797550
4.539500	1.797550
4.540000	1.799461
4.540500	1.800736
4.541000	1.800736
4.541500	1.800098
4.542000	1.798506
4.542500	1.796913
4.543000	1.797232
4.543500	1.796913
4.544000	1.797869
4.544500	1.797232
4.545000	1.798187
4.545500	1.798187
4.546000	1.797232
4.546500	1.796913
4.547000	1.795320
4.547500	1.796595
4.548000	1.797550
4.548500	1.797550
4.549000	1.798187
4.549500	1.798824
4.550000	1.799143
4.550500	1.798506
4.551000	1.798187
4.551500	1.797232
4.552000	1.798187
4.552500	1.799780
4.553000	1.800417
4.553500	1.800098
4.554000	1.798187
4.554500	1.798506
4.555000	1.797550
4.555500	1.796913
4.556000	1.796913
4.556500	1.796913
4.557000	1.797550
4.557500	1.798187
4.558000	1.797550
4.558500	1.796913
4.559000	1.795957
4.559500	1.795320
4.560000	1.796276
4.560500	1.796595
4.561000	1.797869
4.561500	1.798506
4.562000	1.798506
4.562500	1.799143
4.563000	1.798824
4.563500	1.797550
4.564000	1.797550
4.564500	1.798187
4.565000	1.800098
4.565500	1.801054
4.566000	1.799780
4.566500	1.798824
4.567000	1.798187
4.567500	1.797869
4.568000	1.797232
4.568500	1.797232
4.569000	1.798187
4.569500	1.798506
4.570000	1.798506
4.570500	1.797869
4.571000	1.796595
4.571500	1.795957
4.572000	1.796276
4.572500	1.796913
4.573000	1.797869
4.573500	1.797869
4.574000	1.799461
4.574500	1.799143
4.575000	1.799143
4.575500	1.798187
4.576000	1.797232
4.576500	1.797869
4.577000	1.799143
4.577500	1.800417
4.578000	1.801054
4.578500	1.798824
4.579000	1.797869
4.579500	1.797869
4.580000	1.797550
4.580500	1.796913
4.581000	1.797550
4.581500	1.797869
4.582000	1.796913
4.582500	1.798187
4.583000	1.796595
4.583500	1.795639
4.584000	1.795639
4.584500	1.795957
4.585000	1.796913
4.585500	1.796913
4.586000	1.797550
4.586500	1.798187
4.587000	1.798506
4.587500	1.796913
4.588000	1.796913
4.588500	1.798187
4.589000	1.798506
4.589500	1.799780
4.590000	1.800736
4.590500	1.798506
4.591000	1.797869
4.591500	1.797550
4.592000	1.796913
4.592500	1.796913
4.593000	1.796276
4.593500	1.797869
4.594000	1.797232
4.594500	1.798187
4.595000	1.797232
4.595500	1.795320
4.596000	1.794683
4.596500	1.795002
4.597000	1.797550
4.597500	1.797869
4.598000	1.797550
4.598500	1.798506
4.599000	1.797232
4.599500	1.797869
4.600000	1.796595
4.600500	1.796595
4.601000	1.796913
4.601500	1.799143
4.602000	1.799143
4.602500	1.798187
4.603000	1.797232
4.603500	1.797232
4.604000	1.796595
4.604500	1.796276
4.605000	1.796595
4.605500	1.796913
4.606000	1.796595
4.606500	1.796913
4.607000	1.796595
4.607500	1.795639
4.608000	1.794365
4.608500	1.795320
4.609000	1.795957
4.609500	1.796595
4.610000	1.797232
4.610500	1.797869
4.611000	1.797869
4.611500	1.797550
4.612000	1.796913
4.612500	1.796276
4.613000	1.797550
4.613500	1.798506
4.614000	1.799780
4.614500	1.799780
4.615000	1.797869
4.615500	1.797232
4.616000	1.796595
4.616500	1.796276
4.617000	1.796913
4.617500	1.796913
4.618000	1.798824
4.618500	1.797550
4.619000	1.797550
4.619500	1.795957
4.620000	1.795002
4.620500	1.794683
4.621000	1.795639
4.621500	1.797550
4.622000	1.797869
4.622500	1.798824
4.623000	1.798187
4.623500	1.797550
4.624000	1.797232
4.624500	1.796913
4.625000	1.797869
4.625500	1.798187
4.626000	1.800417
4.626500	1.800417
4.627000	1.799461
4.627500	1.798187
4.628000	1.797869
4.628500	1.796913
4.629000	1.796595
4.629500	1.796276
4.630000	1.796913
4.630500	1.797232
4.631000	1.798187
4.631500	1.797232
4.632000	1.795639
4.632500	1.795957
4.633000	1.795639
4.633500	1.797869
4.634000	1.797232
4.634500	1.798187
4.635000	1.797869
4.635500	1.798187
4.636000	1.797550
4.636500	1.796913
4.637000	1.796595
4.637500	1.797550
4.638000	1.798824
4.638500	1.799461
4.639000	1.799461
4.639500	1.797550
4.640000	1.797232
4.640500	1.796913
4.641000	1.796276
4.641500	1.796276
4.642000	1.797232
4.642500	1.797550
4.643000	1.797869
4.643500	1.796276
4.644000	1.795639
4.644500	1.794365
4.645000	1.795320
4.645500	1.794683
4.646000	1.795320
4.646500	1.796595
4.647000	1.797550
4.647500	1.797869
4.648000	1.796595
4.648500	1.796913
4.649000	1.796595
4.649500	1.796595
4.650000	1.797869
4.650500	1.799780
4.651000	1.799143
4.651500	1.798506
4.652000	1.798187
4.652500	1.796595
4.653000	1.795957
4.653500	1.795320
4.654000	1.796276
4.654500	1.796276
4.655000	1.796595
4.655500	1.795639
4.656000	1.795002
4.656500	1.793409
4.657000	1.793728
4.657500	1.794683
4.658000	1.795002
4.658500	1.795957
4.659000	1.796913
4.659500	1.796595
4.660000	1.796913
4.660500	1.796276
4.661000	1.795639
4.661500	1.795639
4.662000	1.795957
4.662500	1.798187
4.663000	1.797869
4.663500	1.797232
4.664000	1.796276
4.664500	1.795320
4.665000	1.794365
4.665500	1.795002
4.666000	1.795639
4.666500	1.795639
4.667000	1.796595
4.667500	1.796913
4.668000	1.795320
4.668500	1.793728
4.669000	1.792772
4.669500	1.793728
4.670000	1.795002
4.670500	1.795957
4.671000	1.796913
4.671500	1.795957
4.672000	1.796595
4.672500	1.795957
4.673000	1.795002
4.673500	1.795320
4.674000	1.795639
4.674500	1.797550
4.675000	1.798187
4.675500	1.797550
4.676000	1.796276
4.676500	1.795320
4.677000	1.795320
4.677500	1.795002
4.678000	1.794365
4.678500	1.795002
4.679000	1.796595
4.679500	1.796913
4.680000	1.794365
4.680500	1.793728
4.681000	1.793409
4.681500	1.793409
4.682000	1.795320
4.682500	1.795957
4.683000	1.796913
4.683500	1.796595
4.684000	1.796595
4.684500	1.796276
4.685000	1.795639
4.685500	1.795957
4.686000	1.795957
4.686500	1.798187
4.687000	1.798824
4.687500	1.798824
4.688000	1.797550
4.688500	1.796595
4.689000	1.796276
4.689500	1.796276
4.690000	1.795957
4.690500	1.796276
4.691000	1.796276
4.691500	1.796913
4.692000	1.795957
4.692500	1.794683
4.693000	1.793091
4.693500	1.793728
4.694000	1.794365
4.694500	1.795320
4.695000	1.796595
4.695500	1.795957
4.696000	1.797869
4.696500	1.796913
4.697000	1.796276
4.697500	1.795639
4.698000	1.796276
4.698500	1.797869
4.699000	1.798824
4.699500	1.797869
4.700000	1.798506
4.700500	1.796913
4.701000	1.795639
4.701500	1.795639
4.702000	1.795639
4.702500	1.796276
4.703000	1.796913
4.703500	1.797869
4.704000	1.797232
4.704500	1.795639
4.705000	1.795002
4.705500	1.794683
4.706000	1.795639
4.706500	1.796276
4.707000	1.797869
4.707500	1.797869
4.708000	1.797550
4.708500	1.797550
4.709000	1.796595
4.709500	1.796276
4.710000	1.797232
4.710500	1.798187
4.711000	1.799143
4.711500	1.798506
4.712000	1.799461
4.712500	1.797232
4.713000	1.796913
4.713500	1.796595
4.714000	1.796595
4.714500	1.796276
4.715000	1.796595
4.715500	1.797869
4.716000	1.796913
4.716500	1.795639
4.717000	1.795639
4.717500	1.795002
4.718000	1.795002
4.718500	1.796276
4.719000	1.796595
4.719500	1.797232
4.720000	1.798187
4.720500	1.798187
4.721000	1.797232
4.721500	1.796913
4.722000	1.796913
4.722500	1.797550
4.723000	1.798824
4.723500	1.800098
4.724000	1.799461
4.724500	1.798506
4.725000	1.797869
4.725500	1.796913
4.726000	1.796276
4.726500	1.796913
4.727000	1.796595
4.727500	1.797869
4.728000	1.797550
4.728500	1.797232
4.729000	1.795957
4.729500	1.794683
4.730000	1.795957
4.730500	1.796595
4.731000	1.796913
4.731500	1.797869
4.732000	1.797869
4.732500	1.798506
4.733000	1.797232
4.733500	1.797869
4.734000	1.796913
4.734500	1.796913
4.735000	1.798824
4.735500	1.799780
4.736000	1.800098
4.736500	1.799461
4.737000	1.797550
4.737500	1.797550
4.738000	1.796595
4.738500	1.795639
4.739000	1.797232
4.739500	1.796595
4.740000	1.796913
4.740500	1.798187
4.741000	1.796595
4.741500	1.795639
4.742000	1.794365
4.742500	1.795002
4.743000	1.796913
4.743500	1.796913
4.744000	1.798187
4.744500	1.798506
4.745000	1.797550
4.745500	1.797232
4.746000	1.796913
4.746500	1.798187
4.747000	1.797550
4.747500	1.799143
4.748000	1.800098
4.748500	1.799461
4.749000	1.797869
4.749500	1.797232
4.750000	1.796913
4.750500	1.796913
4.751000	1.796595
4.751500	1.796913
4.752000	1.797550
4.752500	1.797550
4.753000	1.796913
4.753500	1.795639
4.754000	1.794365
4.754500	1.795002
4.755000	1.796595
4.755500	1.796913
4.756000	1.797232
4.756500	1.797869
4.757000	1.798187
4.757500	1.797869
4.758000	1.796595
4.758500	1.796913
4.759000	1.797869
4.759500	1.798506
4.760000	1.800098
4.760500	1.799143
4.761000	1.798187
4.761500	1.797550
4.762000	1.796913
4.762500	1.796276
4.763000	1.796276
4.763500	1.796913
4.764000	1.797869
4.764500	1.797869
4.765000	1.797232
4.765500	1.795957
4.766000	1.794683
4.766500	1.794365
4.767000	1.795957
4.767500	1.796276
4.768000	1.796276
4.768500	1.797232
4.769000	1.797232
4.769500	1.797232
4.770000	1.796276
4.770500	1.796276
4.771000	1.796595
4.771500	1.796913
4.772000	1.798187
4.772500	1.798824
4.773000	1.798187
4.773500	1.796913
4.774000	1.796276
4.774500	1.795639
4.775000	1.794683
4.775500	1.795639
4.776000	1.796276
4.776500	1.795957
4.777000	1.796595
4.777500	1.795957
4.778000	1.793409
4.778500	1.794365
4.779000	1.794683
4.779500	1.795002
4.780000	1.795957
4.780500	1.796276
4.781000	1.796913
4.781500	1.796595
4.782000	1.796276
4.782500	1.796276
4.783000	1.795957
4.783500	1.796595
4.784000	1.797550
4.784500	1.799461
4.785000	1.797550
4.785500	1.796913
4.786000	1.795957
4.786500	1.795639
4.787000	1.794365
4.787500	1.794046
4.788000	1.795002
4.788500	1.795639
4.789000	1.796276
4.789500	1.795639
4.790000	1.793728
4.790500	1.793728
4.791000	1.793728
4.791500	1.794683
4.792000	1.795320
4.792500	1.796595
4.793000	1.797232
4.793500	1.796595
4.794000	1.796595
4.794500	1.796276
4.795000	1.795002
4.795500	1.796913
4.796000	1.796913
4.796500	1.797869
4.797000	1.798187
4.797500	1.797550
4.798000	1.797232
4.798500	1.796595
4.799000	1.795639
4.799500	1.795957
4.800000	1.795320
4.800500	1.795320
4.801000	1.795639
4.801500	1.795957
4.802000	1.795639
4.802500	1.793409
4.803000	1.793409
4.803500	1.794046
4.804000	1.794683
4.804500	1.795639
4.805000	1.796595
4.805500	1.796913
4.806000	1.796595
4.806500	1.795639
4.807000	1.795639
4.807500	1.795639
4.808000	1.796276
4.808500	1.797232
4.809000	1.799461
4.809500	1.797232
4.810000	1.796595
4.810500	1.796595
4.811000	1.796595
4.811500	1.795639
4.812000	1.795639
4.812500	1.795639
4.813000	1.795957
4.813500	1.795957
4.814000	1.795957
4.814500	1.794683
4.815000	1.793409
4.815500	1.794683
4.816000	1.795639
4.816500	1.796276
4.817000	1.798187
4.817500	1.797550
4.818000	1.796913
4.818500	1.797550
4.819000	1.796276
4.819500	1.796595
4.820000	1.796913
4.820500	1.797550
4.821000	1.798824
4.821500	1.799143
4.822000	1.798187
4.822500	1.797232
4.823000	1.796595
4.823500	1.796276
4.824000	1.796595
4.824500	1.796595
4.825000	1.796913
4.825500	1.796913
4.826000	1.796276
4.826500	1.795320
4.827000	1.795002
4.827500	1.794683
4.828000	1.795002
4.828500	1.797232
4.829000	1.796595
4.829500	1.797869
4.830000	1.797232
4.830500	1.796913
4.831000	1.796276
4.831500	1.795957
4.832000	1.795957
4.832500	1.796595
4.833000	1.798824
4.833500	1.800098
4.834000	1.797869
4.834500	1.796595
4.835000	1.795957
4.835500	1.796276
4.836000	1.796595
4.836500	1.796276
4.837000	1.796276
4.837500	1.797869
4.838000	1.796276
4.838500	1.795957
4.839000	1.795002
4.839500	1.795002
4.840000	1.795320
4.840500	1.796595
4.841000	1.797232
4.841500	1.798187
4.842000	1.797550
4.842500	1.797232
4.843000	1.797232
4.843500	1.796913
4.844000	1.796913
4.844500	1.798187
4.845000	1.799143
4.845500	1.800098
4.846000	1.798187
4.846500	1.797869
4.847000	1.797232
4.847500	1.796595
4.848000	1.795957
4.848500	1.796276
4.849000	1.797550
4.849500	1.796913
4.850000	1.797232
4.850500	1.796276
4.851000	1.795002
4.851500	1.794046
4.852000	1.795002
4.852500	1.796276
4.853000	1.796595
4.853500	1.797232
4.854000	1.797869
4.854500	1.797232
4.855000	1.796276
4.855500	1.796595
4.856000	1.796913
4.856500	1.797550
4.857000	1.798506
4.857500	1.799461
4.858000	1.799461
4.858500	1.797869
4.859000	1.796913
4.859500	1.796595
4.860000	1.796595
4.860500	1.795639
4.861000	1.796913
4.861500	1.797232
4.862000	1.796913
4.862500	1.796276
4.863000	1.795320
4.863500	1.794046
4.864000	1.794046
4.864500	1.794683
4.865000	1.796913
4.865500	1.796595
4.866000	1.797232
4.866500	1.797550
4.867000	1.796913
4.867500	1.796595
4.868000	1.795639
4.868500	1.796276
4.869000	1.798187
4.869500	1.799143
4.870000	1.798187
4.870500	1.796913
4.871000	1.796276
4.871500	1.796276
4.872000	1.796276
4.872500	1.795320
4.873000	1.795639
4.873500	1.796595
4.874000	1.797232
4.874500	1.796913
4.875000	1.795320
4.875500	1.794046
4.876000	1.794046
4.876500	1.795320
4.877000	1.795639
4.877500	1.795639
4.878000	1.796276
4.878500	1.797232
4.879000	1.796595
4.879500	1.795320
4.880000	1.795639
4.880500	1.795002
4.881000	1.796913
4.881500	1.798187
4.882000	1.798187
4.882500	1.797869
4.883000	1.796913
4.883500	1.795639
4.884000	1.795957
4.884500	1.795639
4.885000	1.796276
4.885500	1.796276
4.886000	1.796913
4.886500	1.796913
4.887000	1.796276
4.887500	1.794365
4.888000	1.793728
4.888500	1.794683
4.889000	1.795957
4.889500	1.796276
4.890000	1.797232
4.890500	1.795957
4.891000	1.796276
4.891500	1.797232
4.892000	1.795639
4.892500	1.795320
4.893000	1.795957
4.893500	1.797869
4.894000	1.798187
4.894500	1.798506
4.895000	1.796595
4.895500	1.796595
4.896000	1.795320
4.896500	1.795320
4.897000	1.794365
4.897500	1.795002
4.898000	1.796595
4.898500	1.796913
4.899000	1.795957
4.899500	1.795002
4.900000	1.794046
4.900500	1.793409
4.901000	1.794683
4.901500	1.795957
4.902000	1.796276
4.902500	1.796595
4.903000	1.796913
4.903500	1.796595
4.904000	1.796913
4.904500	1.795320
4.905000	1.796276
4.905500	1.796276
4.906000	1.798506
4.906500	1.798187
4.907000	1.798187
4.907500	1.796595
4.908000	1.795957
4.908500	1.796595
4.909000	1.795639
4.909500	1.795002
4.910000	1.796276
4.910500	1.796595
4.911000	1.796913
4.911500	1.795957
4.912000	1.793409
4.912500	1.793728
4.913000	1.793409
4.913500	1.795002
4.914000	1.796595
4.914500	1.795639
4.915000	1.796913
4.915500	1.796913
4.916000	1.796595
4.916500	1.796595
4.917000	1.796913
4.917500	1.796276
4.918000	1.797550
4.918500	1.798187
4.919000	1.798187
4.919500	1.797550
4.920000	1.796595
4.920500	1.795320
4.921000	1.795002
4.921500	1.795957
4.922000	1.795320
4.922500	1.796276
4.923000	1.796595
4.923500	1.795957
4.924000	1.794365
4.924500	1.793728
4.925000	1.793409
4.925500	1.794683
4.926000	1.795639
4.926500	1.795639
4.927000	1.796913
4.927500	1.796595
4.928000	1.795639
4.928500	1.795002
4.929000	1.795639
4.929500	1.796595
4.930000	1.797869
4.930500	1.798824
4.931000	1.798824
4.931500	1.796595
4.932000	1.796276
4.932500	1.795320
4.933000	1.795639
4.933500	1.795639
4.934000	1.796276
4.934500	1.795639
4.935000	1.796913
4.935500	1.796595
4.936000	1.794046
4.936500	1.793728
4.937000	1.794046
4.937500	1.795320
4.938000	1.795639
4.938500	1.796276
4.939000	1.797232
4.939500	1.796595
4.940000	1.796595
4.940500	1.795957
4.941000	1.795957
4.941500	1.795639
4.942000	1.797232
4.942500	1.798187
4.943000	1.798506
4.943500	1.797869
4.944000	1.796913
4.944500	1.796276
4.945000	1.795957
4.945500	1.795320
4.946000	1.794683
4.946500	1.795320
4.947000	1.796276
4.947500	1.796595
4.948000	1.795320
4.948500	1.793728
4.949000	1.793409
4.949500	1.794046
4.950000	1.794683
4.950500	1.795639
4.951000	1.796595
4.951500	1.797232
4.952000	1.796913
4.952500	1.795639
4.953000	1.795639
4.953500	1.795320
4.954000	1.796276
4.954500	1.796913
4.955000	1.797550
4.955500	1.798506
4.956000	1.797232
4.956500	1.795639
4.957000	1.794683
4.957500	1.794683
4.958000	1.795639
4.958500	1.795639
4.959000	1.794683
4.959500	1.796595
4.960000	1.796595
4.960500	1.794365
4.961000	1.793091
4.961500	1.793409
4.962000	1.794046
4.962500	1.795639
4.963000	1.795957
4.963500	1.796595
4.964000	1.796595
4.964500	1.796276
4.965000	1.795002
4.965500	1.794683
4.966000	1.795639
4.966500	1.796276
4.967000	1.796595
4.967500	1.797869
4.968000	1.797550
4.968500	1.796276
4.969000	1.795320
4.969500	1.795320
4.970000	1.794046
4.970500	1.795002
4.971000	1.795002
4.971500	1.796276
4.972000	1.794365
4.972500	1.795002
4.973000	1.793091
4.973500	1.792454
4.974000	1.793728
4.974500	1.794683
4.975000	1.795320
4.975500	1.795320
4.976000	1.796913
4.976500	1.795957
4.977000	1.795639
4.977500	1.795002
4.978000	1.794365
4.978500	1.795639
4.979000	1.796913
4.979500	1.797550
4.980000	1.796595
4.980500	1.795320
4.981000	1.795002
4.981500	1.794683
4.982000	1.794683
4.982500	1.795320
4.983000	1.795002
4.983500	1.795639
4.984000	1.795957
4.984500	1.795320
4.985000	1.793409
4.985500	1.793409
4.986000	1.793091
4.986500	1.794365
4.987000	1.795002
4.987500	1.795957
4.988000	1.796595
4.988500	1.796276
4.989000	1.795639
4.989500	1.795639
4.990000	1.795002
4.990500	1.795320
4.991000	1.798187
4.991500	1.798187
4.992000	1.797869
4.992500	1.796913
4.993000	1.795639
4.993500	1.795320
4.994000	1.795320
4.994500	1.795320
4.995000	1.795002
4.995500	1.796276
4.996000	1.795957
4.996500	1.795957
4.997000	1.793728
4.997500	1.793409
4.998000	1.793091
4.998500	1.794683
4.999000	1.795639
4.999500	1.796276

