LabVIEW Measurement	
Writer_Version	2
Reader_Version	2
Separator	Tab
Decimal_Separator	.
Multi_Headings	Yes
X_Columns	One
Time_Pref	Absolute
Operator	labuser
Date	2023/05/22
Time	14:45:47.4232686999997809888
***End_of_Header***	
	
Channels	1	
Samples	10000	
Date	2023/05/22	
Time	14:50:01.7505940999996115016	
Y_Unit_Label	Volts	
X_Dimension	Time	
X0	0.0000000000000000E+0	
Delta_X	0.000500	
***End_of_Header***		
X_Value	Voltage	Comment
0.000000	1.692751
0.000500	1.693388
0.001000	1.692751
0.001500	1.694981
0.002000	1.693388
0.002500	1.692751
0.003000	1.691158
0.003500	1.691477
0.004000	1.693070
0.004500	1.693388
0.005000	1.694662
0.005500	1.694662
0.006000	1.694662
0.006500	1.694344
0.007000	1.693707
0.007500	1.693707
0.008000	1.695299
0.008500	1.695937
0.009000	1.695937
0.009500	1.696255
0.010000	1.694025
0.010500	1.694344
0.011000	1.692751
0.011500	1.693070
0.012000	1.694344
0.012500	1.693707
0.013000	1.694344
0.013500	1.693707
0.014000	1.693707
0.014500	1.691477
0.015000	1.691477
0.015500	1.692751
0.016000	1.693388
0.016500	1.693707
0.017000	1.694662
0.017500	1.694344
0.018000	1.694344
0.018500	1.694344
0.019000	1.693707
0.019500	1.694662
0.020000	1.695937
0.020500	1.696574
0.021000	1.696255
0.021500	1.694662
0.022000	1.694344
0.022500	1.693070
0.023000	1.693070
0.023500	1.693070
0.024000	1.693070
0.024500	1.694344
0.025000	1.694662
0.025500	1.693388
0.026000	1.691477
0.026500	1.692433
0.027000	1.691796
0.027500	1.693707
0.028000	1.694344
0.028500	1.694025
0.029000	1.694662
0.029500	1.694981
0.030000	1.693707
0.030500	1.693070
0.031000	1.694025
0.031500	1.695937
0.032000	1.695937
0.032500	1.695618
0.033000	1.694344
0.033500	1.693707
0.034000	1.694344
0.034500	1.693707
0.035000	1.692433
0.035500	1.692751
0.036000	1.694025
0.036500	1.694344
0.037000	1.693388
0.037500	1.692751
0.038000	1.691158
0.038500	1.692114
0.039000	1.693707
0.039500	1.694344
0.040000	1.694662
0.040500	1.695299
0.041000	1.694662
0.041500	1.694025
0.042000	1.693707
0.042500	1.694344
0.043000	1.696255
0.043500	1.695937
0.044000	1.695618
0.044500	1.694981
0.045000	1.694025
0.045500	1.694025
0.046000	1.693388
0.046500	1.693388
0.047000	1.694025
0.047500	1.694662
0.048000	1.694344
0.048500	1.694344
0.049000	1.692433
0.049500	1.691477
0.050000	1.691796
0.050500	1.692751
0.051000	1.693388
0.051500	1.694662
0.052000	1.694662
0.052500	1.694344
0.053000	1.693707
0.053500	1.693388
0.054000	1.694344
0.054500	1.694981
0.055000	1.696255
0.055500	1.697529
0.056000	1.695618
0.056500	1.694981
0.057000	1.693707
0.057500	1.693707
0.058000	1.693388
0.058500	1.693707
0.059000	1.694981
0.059500	1.694662
0.060000	1.694981
0.060500	1.694025
0.061000	1.691796
0.061500	1.691477
0.062000	1.693388
0.062500	1.694344
0.063000	1.694025
0.063500	1.694662
0.064000	1.695618
0.064500	1.694662
0.065000	1.693388
0.065500	1.693707
0.066000	1.694344
0.066500	1.695937
0.067000	1.696892
0.067500	1.696892
0.068000	1.695299
0.068500	1.694662
0.069000	1.693388
0.069500	1.693707
0.070000	1.694025
0.070500	1.694662
0.071000	1.695618
0.071500	1.694662
0.072000	1.693388
0.072500	1.692433
0.073000	1.691158
0.073500	1.692433
0.074000	1.694025
0.074500	1.694344
0.075000	1.694662
0.075500	1.695299
0.076000	1.694662
0.076500	1.694344
0.077000	1.694344
0.077500	1.694025
0.078000	1.694981
0.078500	1.695937
0.079000	1.696574
0.079500	1.694981
0.080000	1.694344
0.080500	1.693707
0.081000	1.693388
0.081500	1.692751
0.082000	1.694025
0.082500	1.694662
0.083000	1.694025
0.083500	1.693388
0.084000	1.692433
0.084500	1.691158
0.085000	1.693070
0.085500	1.693388
0.086000	1.694344
0.086500	1.694981
0.087000	1.694662
0.087500	1.694981
0.088000	1.694662
0.088500	1.693388
0.089000	1.693707
0.089500	1.694981
0.090000	1.696255
0.090500	1.695937
0.091000	1.694981
0.091500	1.694025
0.092000	1.694025
0.092500	1.694344
0.093000	1.693388
0.093500	1.693388
0.094000	1.694344
0.094500	1.694981
0.095000	1.694344
0.095500	1.692751
0.096000	1.691158
0.096500	1.692114
0.097000	1.693070
0.097500	1.694981
0.098000	1.694662
0.098500	1.694662
0.099000	1.694981
0.099500	1.693707
0.100000	1.694662
0.100500	1.693707
0.101000	1.694662
0.101500	1.695299
0.102000	1.697211
0.102500	1.696255
0.103000	1.694981
0.103500	1.694025
0.104000	1.694025
0.104500	1.692751
0.105000	1.693707
0.105500	1.694344
0.106000	1.694662
0.106500	1.694662
0.107000	1.694344
0.107500	1.692433
0.108000	1.691796
0.108500	1.692433
0.109000	1.694344
0.109500	1.694662
0.110000	1.694981
0.110500	1.694981
0.111000	1.694662
0.111500	1.694662
0.112000	1.694344
0.112500	1.694025
0.113000	1.695618
0.113500	1.696892
0.114000	1.696574
0.114500	1.694981
0.115000	1.695299
0.115500	1.694981
0.116000	1.693707
0.116500	1.694025
0.117000	1.693707
0.117500	1.694344
0.118000	1.694662
0.118500	1.695299
0.119000	1.694025
0.119500	1.691796
0.120000	1.692114
0.120500	1.693707
0.121000	1.694981
0.121500	1.694981
0.122000	1.695618
0.122500	1.694981
0.123000	1.695299
0.123500	1.694662
0.124000	1.694344
0.124500	1.694662
0.125000	1.696255
0.125500	1.698166
0.126000	1.695937
0.126500	1.695299
0.127000	1.694344
0.127500	1.694344
0.128000	1.694025
0.128500	1.694025
0.129000	1.694025
0.129500	1.695299
0.130000	1.694981
0.130500	1.693388
0.131000	1.692433
0.131500	1.693070
0.132000	1.693070
0.132500	1.694025
0.133000	1.694662
0.133500	1.694662
0.134000	1.695618
0.134500	1.695299
0.135000	1.694662
0.135500	1.693388
0.136000	1.694344
0.136500	1.695618
0.137000	1.697211
0.137500	1.697211
0.138000	1.695618
0.138500	1.694662
0.139000	1.695299
0.139500	1.694344
0.140000	1.694344
0.140500	1.694662
0.141000	1.694981
0.141500	1.694981
0.142000	1.694344
0.142500	1.693070
0.143000	1.692751
0.143500	1.692114
0.144000	1.692751
0.144500	1.694344
0.145000	1.694662
0.145500	1.695299
0.146000	1.694981
0.146500	1.695299
0.147000	1.693707
0.147500	1.693707
0.148000	1.694025
0.148500	1.695937
0.149000	1.696892
0.149500	1.695937
0.150000	1.694662
0.150500	1.693707
0.151000	1.693707
0.151500	1.693388
0.152000	1.693070
0.152500	1.693388
0.153000	1.694662
0.153500	1.694025
0.154000	1.693070
0.154500	1.692433
0.155000	1.691796
0.155500	1.693388
0.156000	1.693388
0.156500	1.694344
0.157000	1.694662
0.157500	1.694662
0.158000	1.694344
0.158500	1.693707
0.159000	1.691477
0.159500	1.693388
0.160000	1.694981
0.160500	1.695937
0.161000	1.696255
0.161500	1.694344
0.162000	1.694981
0.162500	1.692433
0.163000	1.693388
0.163500	1.692751
0.164000	1.693707
0.164500	1.694025
0.165000	1.694025
0.165500	1.693707
0.166000	1.692433
0.166500	1.691477
0.167000	1.692114
0.167500	1.692433
0.168000	1.693388
0.168500	1.694344
0.169000	1.694662
0.169500	1.694344
0.170000	1.692751
0.170500	1.693707
0.171000	1.694025
0.171500	1.694344
0.172000	1.696255
0.172500	1.695937
0.173000	1.694662
0.173500	1.694344
0.174000	1.693707
0.174500	1.693707
0.175000	1.693070
0.175500	1.693070
0.176000	1.693707
0.176500	1.694662
0.177000	1.694025
0.177500	1.693388
0.178000	1.691158
0.178500	1.692114
0.179000	1.692433
0.179500	1.693707
0.180000	1.694344
0.180500	1.694981
0.181000	1.694344
0.181500	1.694344
0.182000	1.693070
0.182500	1.693388
0.183000	1.694344
0.183500	1.695299
0.184000	1.696255
0.184500	1.695299
0.185000	1.694662
0.185500	1.693707
0.186000	1.693070
0.186500	1.692751
0.187000	1.694025
0.187500	1.694344
0.188000	1.694981
0.188500	1.694344
0.189000	1.692433
0.189500	1.692433
0.190000	1.691158
0.190500	1.693070
0.191000	1.694025
0.191500	1.693707
0.192000	1.694662
0.192500	1.694981
0.193000	1.694344
0.193500	1.693388
0.194000	1.692751
0.194500	1.693388
0.195000	1.695937
0.195500	1.696255
0.196000	1.695299
0.196500	1.694344
0.197000	1.693707
0.197500	1.693070
0.198000	1.692751
0.198500	1.693070
0.199000	1.694025
0.199500	1.694344
0.200000	1.693707
0.200500	1.693070
0.201000	1.691158
0.201500	1.691477
0.202000	1.692433
0.202500	1.694025
0.203000	1.693388
0.203500	1.694344
0.204000	1.694025
0.204500	1.693707
0.205000	1.693388
0.205500	1.692751
0.206000	1.694344
0.206500	1.696255
0.207000	1.696574
0.207500	1.695618
0.208000	1.694662
0.208500	1.694025
0.209000	1.693707
0.209500	1.692433
0.210000	1.693388
0.210500	1.694981
0.211000	1.694344
0.211500	1.693707
0.212000	1.692433
0.212500	1.691158
0.213000	1.691477
0.213500	1.692114
0.214000	1.693388
0.214500	1.693388
0.215000	1.694981
0.215500	1.694662
0.216000	1.694662
0.216500	1.693707
0.217000	1.693388
0.217500	1.693707
0.218000	1.695299
0.218500	1.696255
0.219000	1.696892
0.219500	1.694344
0.220000	1.692751
0.220500	1.693070
0.221000	1.692751
0.221500	1.693070
0.222000	1.693388
0.222500	1.694025
0.223000	1.694344
0.223500	1.694025
0.224000	1.691477
0.224500	1.690840
0.225000	1.691477
0.225500	1.693070
0.226000	1.693388
0.226500	1.694662
0.227000	1.694344
0.227500	1.694662
0.228000	1.693388
0.228500	1.693707
0.229000	1.693707
0.229500	1.694344
0.230000	1.696574
0.230500	1.695299
0.231000	1.695299
0.231500	1.693388
0.232000	1.693707
0.232500	1.693388
0.233000	1.692751
0.233500	1.693388
0.234000	1.694981
0.234500	1.694025
0.235000	1.693070
0.235500	1.691158
0.236000	1.690521
0.236500	1.691796
0.237000	1.692751
0.237500	1.693707
0.238000	1.693707
0.238500	1.693707
0.239000	1.694662
0.239500	1.694025
0.240000	1.693388
0.240500	1.694344
0.241000	1.694662
0.241500	1.696255
0.242000	1.696255
0.242500	1.694981
0.243000	1.693707
0.243500	1.693070
0.244000	1.692433
0.244500	1.693388
0.245000	1.693388
0.245500	1.694344
0.246000	1.694981
0.246500	1.694025
0.247000	1.691477
0.247500	1.690840
0.248000	1.692114
0.248500	1.693388
0.249000	1.693707
0.249500	1.694662
0.250000	1.695299
0.250500	1.694981
0.251000	1.693388
0.251500	1.693070
0.252000	1.693707
0.252500	1.695299
0.253000	1.695937
0.253500	1.696255
0.254000	1.694981
0.254500	1.694344
0.255000	1.693707
0.255500	1.693388
0.256000	1.693070
0.256500	1.694344
0.257000	1.694344
0.257500	1.694662
0.258000	1.694344
0.258500	1.692433
0.259000	1.692433
0.259500	1.691158
0.260000	1.692751
0.260500	1.693707
0.261000	1.694344
0.261500	1.694344
0.262000	1.694981
0.262500	1.693388
0.263000	1.693707
0.263500	1.693707
0.264000	1.694025
0.264500	1.695937
0.265000	1.696574
0.265500	1.695618
0.266000	1.694981
0.266500	1.694662
0.267000	1.694344
0.267500	1.693070
0.268000	1.694025
0.268500	1.694662
0.269000	1.694981
0.269500	1.693707
0.270000	1.693388
0.270500	1.691796
0.271000	1.692433
0.271500	1.693388
0.272000	1.693707
0.272500	1.694981
0.273000	1.694662
0.273500	1.695299
0.274000	1.694662
0.274500	1.693707
0.275000	1.693707
0.275500	1.694344
0.276000	1.695299
0.276500	1.696892
0.277000	1.696574
0.277500	1.695937
0.278000	1.694662
0.278500	1.694344
0.279000	1.692433
0.279500	1.693070
0.280000	1.694344
0.280500	1.694344
0.281000	1.695299
0.281500	1.694344
0.282000	1.692433
0.282500	1.692114
0.283000	1.692114
0.283500	1.694662
0.284000	1.694662
0.284500	1.695299
0.285000	1.695618
0.285500	1.694662
0.286000	1.694344
0.286500	1.694662
0.287000	1.694981
0.287500	1.696574
0.288000	1.696892
0.288500	1.696892
0.289000	1.694981
0.289500	1.693707
0.290000	1.694025
0.290500	1.693388
0.291000	1.693707
0.291500	1.694981
0.292000	1.694662
0.292500	1.694981
0.293000	1.693707
0.293500	1.692114
0.294000	1.691796
0.294500	1.692114
0.295000	1.693388
0.295500	1.695299
0.296000	1.694662
0.296500	1.694662
0.297000	1.694662
0.297500	1.693707
0.298000	1.693707
0.298500	1.693388
0.299000	1.694344
0.299500	1.696255
0.300000	1.696892
0.300500	1.694662
0.301000	1.693388
0.301500	1.693388
0.302000	1.692433
0.302500	1.693388
0.303000	1.694025
0.303500	1.694025
0.304000	1.693707
0.304500	1.693388
0.305000	1.691158
0.305500	1.691477
0.306000	1.692114
0.306500	1.692751
0.307000	1.694344
0.307500	1.694662
0.308000	1.694344
0.308500	1.694344
0.309000	1.693707
0.309500	1.693707
0.310000	1.694025
0.310500	1.695299
0.311000	1.696255
0.311500	1.695618
0.312000	1.694981
0.312500	1.694344
0.313000	1.693070
0.313500	1.693388
0.314000	1.692433
0.314500	1.693707
0.315000	1.693707
0.315500	1.694025
0.316000	1.693070
0.316500	1.691796
0.317000	1.691477
0.317500	1.691796
0.318000	1.691477
0.318500	1.693388
0.319000	1.694025
0.319500	1.694662
0.320000	1.694344
0.320500	1.693707
0.321000	1.692751
0.321500	1.692751
0.322000	1.694344
0.322500	1.695299
0.323000	1.696574
0.323500	1.694662
0.324000	1.694025
0.324500	1.693388
0.325000	1.693070
0.325500	1.693070
0.326000	1.693388
0.326500	1.694025
0.327000	1.694662
0.327500	1.694344
0.328000	1.692114
0.328500	1.690521
0.329000	1.692114
0.329500	1.693070
0.330000	1.693388
0.330500	1.694662
0.331000	1.694662
0.331500	1.694981
0.332000	1.694025
0.332500	1.693388
0.333000	1.692751
0.333500	1.694662
0.334000	1.695618
0.334500	1.696574
0.335000	1.695937
0.335500	1.694662
0.336000	1.693707
0.336500	1.693707
0.337000	1.693388
0.337500	1.693707
0.338000	1.694025
0.338500	1.694662
0.339000	1.693707
0.339500	1.692751
0.340000	1.692751
0.340500	1.691796
0.341000	1.693707
0.341500	1.693707
0.342000	1.694981
0.342500	1.694981
0.343000	1.694662
0.343500	1.694662
0.344000	1.693707
0.344500	1.693707
0.345000	1.695299
0.345500	1.695937
0.346000	1.695937
0.346500	1.696574
0.347000	1.694662
0.347500	1.693388
0.348000	1.694344
0.348500	1.693388
0.349000	1.693388
0.349500	1.694981
0.350000	1.694344
0.350500	1.694662
0.351000	1.692114
0.351500	1.692433
0.352000	1.692433
0.352500	1.693707
0.353000	1.693388
0.353500	1.694025
0.354000	1.694344
0.354500	1.694344
0.355000	1.694662
0.355500	1.694981
0.356000	1.694025
0.356500	1.694981
0.357000	1.696255
0.357500	1.696574
0.358000	1.696574
0.358500	1.694981
0.359000	1.694981
0.359500	1.694025
0.360000	1.693070
0.360500	1.694025
0.361000	1.694344
0.361500	1.694662
0.362000	1.694344
0.362500	1.692433
0.363000	1.691158
0.363500	1.692114
0.364000	1.693070
0.364500	1.694981
0.365000	1.694025
0.365500	1.694662
0.366000	1.694662
0.366500	1.694344
0.367000	1.694344
0.367500	1.693707
0.368000	1.695618
0.368500	1.696574
0.369000	1.696255
0.369500	1.695299
0.370000	1.694981
0.370500	1.693388
0.371000	1.694025
0.371500	1.693070
0.372000	1.694344
0.372500	1.694025
0.373000	1.694981
0.373500	1.693070
0.374000	1.691796
0.374500	1.691477
0.375000	1.692433
0.375500	1.694344
0.376000	1.693707
0.376500	1.694344
0.377000	1.694981
0.377500	1.694981
0.378000	1.694344
0.378500	1.693707
0.379000	1.694662
0.379500	1.694662
0.380000	1.696255
0.380500	1.696892
0.381000	1.695299
0.381500	1.694344
0.382000	1.693388
0.382500	1.693070
0.383000	1.693070
0.383500	1.693707
0.384000	1.694344
0.384500	1.694344
0.385000	1.693707
0.385500	1.692433
0.386000	1.691158
0.386500	1.691796
0.387000	1.694025
0.387500	1.694025
0.388000	1.694025
0.388500	1.694662
0.389000	1.695299
0.389500	1.693388
0.390000	1.693388
0.390500	1.693388
0.391000	1.695937
0.391500	1.696574
0.392000	1.695937
0.392500	1.694981
0.393000	1.694344
0.393500	1.693707
0.394000	1.693070
0.394500	1.693388
0.395000	1.694662
0.395500	1.694662
0.396000	1.694662
0.396500	1.694025
0.397000	1.692433
0.397500	1.691158
0.398000	1.692433
0.398500	1.693707
0.399000	1.694344
0.399500	1.694025
0.400000	1.694344
0.400500	1.694662
0.401000	1.693707
0.401500	1.693388
0.402000	1.694662
0.402500	1.695618
0.403000	1.696574
0.403500	1.696255
0.404000	1.694981
0.404500	1.694344
0.405000	1.693707
0.405500	1.693388
0.406000	1.693070
0.406500	1.693707
0.407000	1.694662
0.407500	1.694344
0.408000	1.693707
0.408500	1.692433
0.409000	1.691158
0.409500	1.692114
0.410000	1.693707
0.410500	1.694662
0.411000	1.694344
0.411500	1.694981
0.412000	1.693707
0.412500	1.694662
0.413000	1.692433
0.413500	1.694344
0.414000	1.695299
0.414500	1.696574
0.415000	1.695937
0.415500	1.694662
0.416000	1.694025
0.416500	1.692751
0.417000	1.693388
0.417500	1.693707
0.418000	1.694025
0.418500	1.694344
0.419000	1.693388
0.419500	1.692433
0.420000	1.691477
0.420500	1.691158
0.421000	1.692433
0.421500	1.693388
0.422000	1.694662
0.422500	1.693707
0.423000	1.694662
0.423500	1.694025
0.424000	1.693388
0.424500	1.693388
0.425000	1.694344
0.425500	1.696255
0.426000	1.695937
0.426500	1.695937
0.427000	1.694662
0.427500	1.693707
0.428000	1.692751
0.428500	1.692751
0.429000	1.693070
0.429500	1.693707
0.430000	1.694344
0.430500	1.694025
0.431000	1.692114
0.431500	1.690840
0.432000	1.691796
0.432500	1.692433
0.433000	1.693070
0.433500	1.694662
0.434000	1.694344
0.434500	1.694662
0.435000	1.693707
0.435500	1.693388
0.436000	1.693388
0.436500	1.694662
0.437000	1.696255
0.437500	1.696255
0.438000	1.694981
0.438500	1.694025
0.439000	1.693070
0.439500	1.693388
0.440000	1.692751
0.440500	1.693707
0.441000	1.693388
0.441500	1.694025
0.442000	1.693070
0.442500	1.690840
0.443000	1.690521
0.443500	1.691477
0.444000	1.692751
0.444500	1.693070
0.445000	1.694344
0.445500	1.694344
0.446000	1.694344
0.446500	1.693707
0.447000	1.693070
0.447500	1.693388
0.448000	1.695618
0.448500	1.695937
0.449000	1.695299
0.449500	1.694344
0.450000	1.693707
0.450500	1.693388
0.451000	1.693070
0.451500	1.692433
0.452000	1.693070
0.452500	1.694344
0.453000	1.694344
0.453500	1.692751
0.454000	1.690840
0.454500	1.691158
0.455000	1.691796
0.455500	1.693388
0.456000	1.693707
0.456500	1.694025
0.457000	1.694662
0.457500	1.693707
0.458000	1.692751
0.458500	1.694344
0.459000	1.694344
0.459500	1.695937
0.460000	1.695618
0.460500	1.695299
0.461000	1.694025
0.461500	1.694344
0.462000	1.692433
0.462500	1.692751
0.463000	1.693388
0.463500	1.694344
0.464000	1.694662
0.464500	1.693388
0.465000	1.692114
0.465500	1.691158
0.466000	1.692433
0.466500	1.693388
0.467000	1.694344
0.467500	1.694025
0.468000	1.694662
0.468500	1.694662
0.469000	1.693707
0.469500	1.693070
0.470000	1.694025
0.470500	1.694981
0.471000	1.695937
0.471500	1.695618
0.472000	1.694981
0.472500	1.693707
0.473000	1.693070
0.473500	1.692751
0.474000	1.692751
0.474500	1.694025
0.475000	1.693388
0.475500	1.694025
0.476000	1.692433
0.476500	1.691796
0.477000	1.691477
0.477500	1.692433
0.478000	1.693388
0.478500	1.694662
0.479000	1.694025
0.479500	1.693707
0.480000	1.694025
0.480500	1.693707
0.481000	1.693388
0.481500	1.694025
0.482000	1.695299
0.482500	1.696255
0.483000	1.695299
0.483500	1.694662
0.484000	1.693707
0.484500	1.692751
0.485000	1.692433
0.485500	1.693707
0.486000	1.694025
0.486500	1.694344
0.487000	1.693707
0.487500	1.692433
0.488000	1.691158
0.488500	1.691796
0.489000	1.692114
0.489500	1.693707
0.490000	1.694025
0.490500	1.694344
0.491000	1.694344
0.491500	1.694025
0.492000	1.693707
0.492500	1.693388
0.493000	1.694025
0.493500	1.694662
0.494000	1.696255
0.494500	1.694981
0.495000	1.694344
0.495500	1.693707
0.496000	1.692751
0.496500	1.692433
0.497000	1.693388
0.497500	1.694344
0.498000	1.693707
0.498500	1.693388
0.499000	1.679373
0.499500	1.691796
0.500000	1.690203
0.500500	1.692433
0.501000	1.693707
0.501500	1.693707
0.502000	1.694025
0.502500	1.694662
0.503000	1.694344
0.503500	1.693070
0.504000	1.693388
0.504500	1.694344
0.505000	1.694981
0.505500	1.695618
0.506000	1.695937
0.506500	1.694025
0.507000	1.692751
0.507500	1.693070
0.508000	1.693070
0.508500	1.693070
0.509000	1.694344
0.509500	1.693070
0.510000	1.694025
0.510500	1.692114
0.511000	1.691477
0.511500	1.690840
0.512000	1.692751
0.512500	1.694025
0.513000	1.694025
0.513500	1.694662
0.514000	1.694981
0.514500	1.694025
0.515000	1.693388
0.515500	1.693388
0.516000	1.694344
0.516500	1.695618
0.517000	1.695937
0.517500	1.694981
0.518000	1.694344
0.518500	1.693707
0.519000	1.693707
0.519500	1.692433
0.520000	1.692433
0.520500	1.693707
0.521000	1.694981
0.521500	1.693388
0.522000	1.693707
0.522500	1.692433
0.523000	1.690840
0.523500	1.692114
0.524000	1.693707
0.524500	1.694662
0.525000	1.694344
0.525500	1.694344
0.526000	1.694025
0.526500	1.693388
0.527000	1.693388
0.527500	1.694662
0.528000	1.695618
0.528500	1.695618
0.529000	1.694981
0.529500	1.694025
0.530000	1.692751
0.530500	1.693388
0.531000	1.693388
0.531500	1.693070
0.532000	1.694025
0.532500	1.694344
0.533000	1.694025
0.533500	1.692433
0.534000	1.690840
0.534500	1.692114
0.535000	1.693388
0.535500	1.693070
0.536000	1.694344
0.536500	1.694344
0.537000	1.694662
0.537500	1.694344
0.538000	1.693388
0.538500	1.693388
0.539000	1.694662
0.539500	1.696255
0.540000	1.696892
0.540500	1.694981
0.541000	1.694344
0.541500	1.693388
0.542000	1.693388
0.542500	1.692433
0.543000	1.694025
0.543500	1.693388
0.544000	1.694025
0.544500	1.694344
0.545000	1.693070
0.545500	1.691158
0.546000	1.691477
0.546500	1.693388
0.547000	1.693070
0.547500	1.694344
0.548000	1.694662
0.548500	1.693707
0.549000	1.694981
0.549500	1.693388
0.550000	1.693070
0.550500	1.693388
0.551000	1.695937
0.551500	1.695937
0.552000	1.695937
0.552500	1.694344
0.553000	1.693070
0.553500	1.692751
0.554000	1.692751
0.554500	1.692751
0.555000	1.693070
0.555500	1.694344
0.556000	1.693707
0.556500	1.693388
0.557000	1.690521
0.557500	1.690840
0.558000	1.690840
0.558500	1.694025
0.559000	1.694344
0.559500	1.694344
0.560000	1.694981
0.560500	1.693388
0.561000	1.694025
0.561500	1.693388
0.562000	1.693707
0.562500	1.695937
0.563000	1.696255
0.563500	1.695937
0.564000	1.693707
0.564500	1.693388
0.565000	1.692751
0.565500	1.693707
0.566000	1.693388
0.566500	1.693707
0.567000	1.694344
0.567500	1.693707
0.568000	1.693388
0.568500	1.691158
0.569000	1.690840
0.569500	1.691477
0.570000	1.693707
0.570500	1.693707
0.571000	1.694662
0.571500	1.694981
0.572000	1.694662
0.572500	1.693070
0.573000	1.692751
0.573500	1.693707
0.574000	1.694981
0.574500	1.695618
0.575000	1.695299
0.575500	1.695299
0.576000	1.693707
0.576500	1.693070
0.577000	1.693070
0.577500	1.692433
0.578000	1.693070
0.578500	1.693070
0.579000	1.694025
0.579500	1.692433
0.580000	1.691796
0.580500	1.689884
0.581000	1.692114
0.581500	1.693707
0.582000	1.694344
0.582500	1.694662
0.583000	1.694662
0.583500	1.694662
0.584000	1.694025
0.584500	1.693707
0.585000	1.693388
0.585500	1.694981
0.586000	1.695937
0.586500	1.696255
0.587000	1.694981
0.587500	1.694344
0.588000	1.694025
0.588500	1.693070
0.589000	1.692433
0.589500	1.693070
0.590000	1.694025
0.590500	1.694344
0.591000	1.693070
0.591500	1.691477
0.592000	1.691158
0.592500	1.692114
0.593000	1.693388
0.593500	1.693707
0.594000	1.694662
0.594500	1.695618
0.595000	1.694344
0.595500	1.694344
0.596000	1.693707
0.596500	1.693707
0.597000	1.696255
0.597500	1.697211
0.598000	1.696255
0.598500	1.695618
0.599000	1.694344
0.599500	1.694025
0.600000	1.693070
0.600500	1.693707
0.601000	1.694344
0.601500	1.694981
0.602000	1.694344
0.602500	1.694025
0.603000	1.691796
0.603500	1.691477
0.604000	1.692433
0.604500	1.694025
0.605000	1.694344
0.605500	1.694981
0.606000	1.694981
0.606500	1.694981
0.607000	1.694344
0.607500	1.694344
0.608000	1.694981
0.608500	1.695937
0.609000	1.696255
0.609500	1.696574
0.610000	1.694662
0.610500	1.694662
0.611000	1.694025
0.611500	1.693707
0.612000	1.694662
0.612500	1.694344
0.613000	1.694662
0.613500	1.694981
0.614000	1.693707
0.614500	1.691796
0.615000	1.692433
0.615500	1.693707
0.616000	1.694025
0.616500	1.694981
0.617000	1.695618
0.617500	1.695299
0.618000	1.694662
0.618500	1.694662
0.619000	1.694025
0.619500	1.694981
0.620000	1.696574
0.620500	1.697529
0.621000	1.696892
0.621500	1.695618
0.622000	1.694344
0.622500	1.694662
0.623000	1.693388
0.623500	1.693388
0.624000	1.695299
0.624500	1.694981
0.625000	1.694662
0.625500	1.693707
0.626000	1.692433
0.626500	1.692751
0.627000	1.693707
0.627500	1.694662
0.628000	1.694662
0.628500	1.695937
0.629000	1.694344
0.629500	1.694025
0.630000	1.694662
0.630500	1.694025
0.631000	1.694662
0.631500	1.696892
0.632000	1.696255
0.632500	1.696892
0.633000	1.694981
0.633500	1.693707
0.634000	1.694662
0.634500	1.693707
0.635000	1.694025
0.635500	1.694662
0.636000	1.694981
0.636500	1.694981
0.637000	1.692751
0.637500	1.691796
0.638000	1.691796
0.638500	1.692751
0.639000	1.694344
0.639500	1.694344
0.640000	1.694981
0.640500	1.695299
0.641000	1.694025
0.641500	1.693707
0.642000	1.693388
0.642500	1.694981
0.643000	1.696255
0.643500	1.696892
0.644000	1.695937
0.644500	1.694025
0.645000	1.693707
0.645500	1.694025
0.646000	1.693707
0.646500	1.692751
0.647000	1.694344
0.647500	1.694662
0.648000	1.694344
0.648500	1.692751
0.649000	1.692433
0.649500	1.692114
0.650000	1.692114
0.650500	1.693707
0.651000	1.694981
0.651500	1.694662
0.652000	1.695299
0.652500	1.694981
0.653000	1.694344
0.653500	1.693388
0.654000	1.694344
0.654500	1.695937
0.655000	1.696255
0.655500	1.695937
0.656000	1.694344
0.656500	1.692751
0.657000	1.693388
0.657500	1.693070
0.658000	1.693388
0.658500	1.694025
0.659000	1.694981
0.659500	1.694981
0.660000	1.692751
0.660500	1.692114
0.661000	1.691477
0.661500	1.692433
0.662000	1.693707
0.662500	1.694662
0.663000	1.694662
0.663500	1.694981
0.664000	1.694662
0.664500	1.693707
0.665000	1.693707
0.665500	1.693707
0.666000	1.695299
0.666500	1.696574
0.667000	1.695618
0.667500	1.694981
0.668000	1.693707
0.668500	1.693070
0.669000	1.692751
0.669500	1.693388
0.670000	1.694344
0.670500	1.694981
0.671000	1.694025
0.671500	1.693388
0.672000	1.692114
0.672500	1.692114
0.673000	1.692751
0.673500	1.694344
0.674000	1.694662
0.674500	1.694662
0.675000	1.695299
0.675500	1.694662
0.676000	1.694025
0.676500	1.693707
0.677000	1.694344
0.677500	1.696255
0.678000	1.695937
0.678500	1.696255
0.679000	1.694981
0.679500	1.694344
0.680000	1.692751
0.680500	1.693707
0.681000	1.694025
0.681500	1.694344
0.682000	1.694025
0.682500	1.694344
0.683000	1.693070
0.683500	1.691477
0.684000	1.691796
0.684500	1.692751
0.685000	1.694025
0.685500	1.694025
0.686000	1.694344
0.686500	1.694344
0.687000	1.694344
0.687500	1.694344
0.688000	1.694025
0.688500	1.694025
0.689000	1.695618
0.689500	1.696255
0.690000	1.695618
0.690500	1.694981
0.691000	1.694344
0.691500	1.692751
0.692000	1.692751
0.692500	1.693388
0.693000	1.694344
0.693500	1.694344
0.694000	1.694344
0.694500	1.692751
0.695000	1.691796
0.695500	1.691477
0.696000	1.691477
0.696500	1.694344
0.697000	1.694662
0.697500	1.694344
0.698000	1.694662
0.698500	1.694025
0.699000	1.693707
0.699500	1.694025
0.700000	1.694981
0.700500	1.695618
0.701000	1.696255
0.701500	1.696255
0.702000	1.694981
0.702500	1.694025
0.703000	1.693070
0.703500	1.693070
0.704000	1.693388
0.704500	1.694344
0.705000	1.694344
0.705500	1.694662
0.706000	1.692433
0.706500	1.691796
0.707000	1.691158
0.707500	1.692433
0.708000	1.693388
0.708500	1.694344
0.709000	1.693707
0.709500	1.694662
0.710000	1.693707
0.710500	1.693070
0.711000	1.693070
0.711500	1.694025
0.712000	1.695618
0.712500	1.695937
0.713000	1.695937
0.713500	1.694981
0.714000	1.693388
0.714500	1.693070
0.715000	1.692751
0.715500	1.693070
0.716000	1.694025
0.716500	1.694344
0.717000	1.694662
0.717500	1.693070
0.718000	1.692114
0.718500	1.691796
0.719000	1.692751
0.719500	1.692751
0.720000	1.694344
0.720500	1.694981
0.721000	1.694344
0.721500	1.694662
0.722000	1.694025
0.722500	1.692751
0.723000	1.693707
0.723500	1.694662
0.724000	1.696255
0.724500	1.696574
0.725000	1.694981
0.725500	1.694344
0.726000	1.694025
0.726500	1.691796
0.727000	1.693070
0.727500	1.692751
0.728000	1.694662
0.728500	1.694662
0.729000	1.692751
0.729500	1.692433
0.730000	1.691477
0.730500	1.692433
0.731000	1.694025
0.731500	1.694025
0.732000	1.694662
0.732500	1.694662
0.733000	1.694344
0.733500	1.694025
0.734000	1.693388
0.734500	1.694662
0.735000	1.695299
0.735500	1.697529
0.736000	1.696255
0.736500	1.694344
0.737000	1.694025
0.737500	1.693070
0.738000	1.693388
0.738500	1.693707
0.739000	1.694025
0.739500	1.694662
0.740000	1.694344
0.740500	1.692114
0.741000	1.692433
0.741500	1.690840
0.742000	1.692114
0.742500	1.693707
0.743000	1.694344
0.743500	1.694344
0.744000	1.694025
0.744500	1.694344
0.745000	1.693070
0.745500	1.693388
0.746000	1.693707
0.746500	1.696255
0.747000	1.696892
0.747500	1.696255
0.748000	1.694344
0.748500	1.694025
0.749000	1.693388
0.749500	1.693070
0.750000	1.693388
0.750500	1.693707
0.751000	1.694025
0.751500	1.694662
0.752000	1.692433
0.752500	1.691477
0.753000	1.691477
0.753500	1.693388
0.754000	1.693707
0.754500	1.693707
0.755000	1.694025
0.755500	1.694662
0.756000	1.693707
0.756500	1.693707
0.757000	1.692751
0.757500	1.694344
0.758000	1.695299
0.758500	1.695937
0.759000	1.695937
0.759500	1.694344
0.760000	1.693070
0.760500	1.692751
0.761000	1.693388
0.761500	1.693070
0.762000	1.693707
0.762500	1.694662
0.763000	1.694025
0.763500	1.691796
0.764000	1.691158
0.764500	1.691477
0.765000	1.692433
0.765500	1.693070
0.766000	1.693388
0.766500	1.694344
0.767000	1.693707
0.767500	1.694025
0.768000	1.694025
0.768500	1.692433
0.769000	1.693707
0.769500	1.695299
0.770000	1.696574
0.770500	1.694981
0.771000	1.693388
0.771500	1.693070
0.772000	1.692433
0.772500	1.693070
0.773000	1.693070
0.773500	1.694025
0.774000	1.694344
0.774500	1.694344
0.775000	1.692433
0.775500	1.691796
0.776000	1.691796
0.776500	1.692433
0.777000	1.693388
0.777500	1.693707
0.778000	1.694662
0.778500	1.694344
0.779000	1.694025
0.779500	1.693388
0.780000	1.692751
0.780500	1.694344
0.781000	1.696255
0.781500	1.695299
0.782000	1.694981
0.782500	1.693388
0.783000	1.693388
0.783500	1.692433
0.784000	1.692751
0.784500	1.693388
0.785000	1.693388
0.785500	1.694344
0.786000	1.693388
0.786500	1.691796
0.787000	1.690840
0.787500	1.690521
0.788000	1.693070
0.788500	1.692751
0.789000	1.694025
0.789500	1.693707
0.790000	1.694344
0.790500	1.694344
0.791000	1.693388
0.791500	1.692751
0.792000	1.694344
0.792500	1.695937
0.793000	1.696574
0.793500	1.694662
0.794000	1.694981
0.794500	1.694344
0.795000	1.692751
0.795500	1.693707
0.796000	1.692751
0.796500	1.693388
0.797000	1.693707
0.797500	1.694981
0.798000	1.693388
0.798500	1.691796
0.799000	1.691158
0.799500	1.692433
0.800000	1.693388
0.800500	1.694344
0.801000	1.694981
0.801500	1.694981
0.802000	1.695299
0.802500	1.694981
0.803000	1.693707
0.803500	1.694025
0.804000	1.694662
0.804500	1.696892
0.805000	1.696255
0.805500	1.694981
0.806000	1.694344
0.806500	1.693388
0.807000	1.693388
0.807500	1.692433
0.808000	1.693388
0.808500	1.694981
0.809000	1.694662
0.809500	1.693388
0.810000	1.691477
0.810500	1.691796
0.811000	1.692114
0.811500	1.694025
0.812000	1.694344
0.812500	1.694981
0.813000	1.694981
0.813500	1.694981
0.814000	1.694025
0.814500	1.693070
0.815000	1.693707
0.815500	1.695618
0.816000	1.696892
0.816500	1.696574
0.817000	1.695299
0.817500	1.694662
0.818000	1.693388
0.818500	1.693070
0.819000	1.694025
0.819500	1.694025
0.820000	1.694662
0.820500	1.694662
0.821000	1.694662
0.821500	1.691796
0.822000	1.691477
0.822500	1.692751
0.823000	1.693707
0.823500	1.694344
0.824000	1.694981
0.824500	1.695299
0.825000	1.694344
0.825500	1.694662
0.826000	1.694025
0.826500	1.694344
0.827000	1.694981
0.827500	1.696892
0.828000	1.696574
0.828500	1.694662
0.829000	1.694344
0.829500	1.694025
0.830000	1.693388
0.830500	1.693070
0.831000	1.694344
0.831500	1.694981
0.832000	1.694981
0.832500	1.693070
0.833000	1.692114
0.833500	1.691796
0.834000	1.693070
0.834500	1.693707
0.835000	1.694025
0.835500	1.694344
0.836000	1.694981
0.836500	1.695618
0.837000	1.693388
0.837500	1.694662
0.838000	1.694662
0.838500	1.695299
0.839000	1.697211
0.839500	1.695937
0.840000	1.694981
0.840500	1.694025
0.841000	1.693070
0.841500	1.693388
0.842000	1.693070
0.842500	1.694662
0.843000	1.694662
0.843500	1.694344
0.844000	1.692751
0.844500	1.691796
0.845000	1.691477
0.845500	1.694025
0.846000	1.694025
0.846500	1.694344
0.847000	1.694662
0.847500	1.695618
0.848000	1.694344
0.848500	1.693707
0.849000	1.694662
0.849500	1.694344
0.850000	1.695618
0.850500	1.695937
0.851000	1.696574
0.851500	1.695618
0.852000	1.694662
0.852500	1.694662
0.853000	1.694025
0.853500	1.693707
0.854000	1.693707
0.854500	1.695299
0.855000	1.694981
0.855500	1.693707
0.856000	1.693388
0.856500	1.692114
0.857000	1.693707
0.857500	1.693388
0.858000	1.694662
0.858500	1.695299
0.859000	1.695937
0.859500	1.695299
0.860000	1.694344
0.860500	1.694981
0.861000	1.695299
0.861500	1.696255
0.862000	1.696892
0.862500	1.696574
0.863000	1.695618
0.863500	1.694981
0.864000	1.693707
0.864500	1.694344
0.865000	1.693707
0.865500	1.694344
0.866000	1.694981
0.866500	1.694981
0.867000	1.693707
0.867500	1.693070
0.868000	1.692114
0.868500	1.693388
0.869000	1.694981
0.869500	1.694981
0.870000	1.694662
0.870500	1.694981
0.871000	1.694981
0.871500	1.694662
0.872000	1.694344
0.872500	1.694662
0.873000	1.695937
0.873500	1.697529
0.874000	1.696892
0.874500	1.695299
0.875000	1.694981
0.875500	1.694344
0.876000	1.693388
0.876500	1.694025
0.877000	1.694344
0.877500	1.694025
0.878000	1.695618
0.878500	1.693707
0.879000	1.692433
0.879500	1.692433
0.880000	1.693388
0.880500	1.694662
0.881000	1.694981
0.881500	1.695299
0.882000	1.695299
0.882500	1.694981
0.883000	1.694344
0.883500	1.694025
0.884000	1.694344
0.884500	1.695299
0.885000	1.696892
0.885500	1.697529
0.886000	1.695937
0.886500	1.695618
0.887000	1.694344
0.887500	1.693707
0.888000	1.693388
0.888500	1.693388
0.889000	1.695299
0.889500	1.694662
0.890000	1.694981
0.890500	1.692751
0.891000	1.691477
0.891500	1.691158
0.892000	1.693707
0.892500	1.694662
0.893000	1.694025
0.893500	1.695299
0.894000	1.694662
0.894500	1.694662
0.895000	1.693388
0.895500	1.694662
0.896000	1.694981
0.896500	1.696574
0.897000	1.696255
0.897500	1.696255
0.898000	1.694344
0.898500	1.694025
0.899000	1.693070
0.899500	1.693388
0.900000	1.694662
0.900500	1.694662
0.901000	1.694344
0.901500	1.694662
0.902000	1.692751
0.902500	1.691477
0.903000	1.691796
0.903500	1.693070
0.904000	1.694344
0.904500	1.693707
0.905000	1.694344
0.905500	1.694662
0.906000	1.693707
0.906500	1.693707
0.907000	1.693070
0.907500	1.694981
0.908000	1.696574
0.908500	1.695937
0.909000	1.695299
0.909500	1.694344
0.910000	1.693707
0.910500	1.692433
0.911000	1.692751
0.911500	1.693707
0.912000	1.694025
0.912500	1.694662
0.913000	1.694025
0.913500	1.692751
0.914000	1.690521
0.914500	1.691158
0.915000	1.692114
0.915500	1.694025
0.916000	1.693707
0.916500	1.694981
0.917000	1.694344
0.917500	1.694025
0.918000	1.692751
0.918500	1.693070
0.919000	1.694344
0.919500	1.695937
0.920000	1.695937
0.920500	1.694662
0.921000	1.694344
0.921500	1.693707
0.922000	1.692433
0.922500	1.693388
0.923000	1.693707
0.923500	1.694025
0.924000	1.694981
0.924500	1.693388
0.925000	1.692114
0.925500	1.691477
0.926000	1.691477
0.926500	1.693707
0.927000	1.694344
0.927500	1.694344
0.928000	1.694344
0.928500	1.694662
0.929000	1.694344
0.929500	1.694025
0.930000	1.694025
0.930500	1.694025
0.931000	1.696892
0.931500	1.696255
0.932000	1.695937
0.932500	1.694662
0.933000	1.693707
0.933500	1.693388
0.934000	1.693388
0.934500	1.694025
0.935000	1.694344
0.935500	1.695937
0.936000	1.694662
0.936500	1.692433
0.937000	1.691796
0.937500	1.692433
0.938000	1.693070
0.938500	1.693707
0.939000	1.695618
0.939500	1.694981
0.940000	1.695618
0.940500	1.694344
0.941000	1.693388
0.941500	1.694662
0.942000	1.694981
0.942500	1.696255
0.943000	1.696255
0.943500	1.695618
0.944000	1.694981
0.944500	1.694344
0.945000	1.694025
0.945500	1.693707
0.946000	1.693388
0.946500	1.694662
0.947000	1.694981
0.947500	1.694344
0.948000	1.693070
0.948500	1.692114
0.949000	1.693070
0.949500	1.693707
0.950000	1.694981
0.950500	1.694344
0.951000	1.694662
0.951500	1.694981
0.952000	1.694344
0.952500	1.694344
0.953000	1.694025
0.953500	1.694344
0.954000	1.695937
0.954500	1.697529
0.955000	1.695937
0.955500	1.694981
0.956000	1.694662
0.956500	1.693388
0.957000	1.693388
0.957500	1.692751
0.958000	1.694344
0.958500	1.695299
0.959000	1.693707
0.959500	1.692433
0.960000	1.690840
0.960500	1.691158
0.961000	1.693707
0.961500	1.694025
0.962000	1.694662
0.962500	1.694981
0.963000	1.695299
0.963500	1.694981
0.964000	1.693707
0.964500	1.694025
0.965000	1.694981
0.965500	1.695618
0.966000	1.696255
0.966500	1.695299
0.967000	1.694025
0.967500	1.694344
0.968000	1.693707
0.968500	1.693388
0.969000	1.693388
0.969500	1.693707
0.970000	1.694344
0.970500	1.694025
0.971000	1.693070
0.971500	1.690521
0.972000	1.691158
0.972500	1.692751
0.973000	1.693707
0.973500	1.694981
0.974000	1.694344
0.974500	1.694981
0.975000	1.694662
0.975500	1.693070
0.976000	1.693070
0.976500	1.694025
0.977000	1.696255
0.977500	1.696255
0.978000	1.695937
0.978500	1.694344
0.979000	1.694025
0.979500	1.694025
0.980000	1.693707
0.980500	1.693070
0.981000	1.694025
0.981500	1.694662
0.982000	1.694344
0.982500	1.692433
0.983000	1.691796
0.983500	1.691158
0.984000	1.693070
0.984500	1.694025
0.985000	1.693707
0.985500	1.694662
0.986000	1.694981
0.986500	1.694344
0.987000	1.693388
0.987500	1.692751
0.988000	1.694025
0.988500	1.695937
0.989000	1.696892
0.989500	1.695618
0.990000	1.694981
0.990500	1.694025
0.991000	1.694344
0.991500	1.693070
0.992000	1.694025
0.992500	1.694344
0.993000	1.694662
0.993500	1.693707
0.994000	1.692751
0.994500	1.691796
0.995000	1.691158
0.995500	1.692751
0.996000	1.694025
0.996500	1.694981
0.997000	1.694344
0.997500	1.694981
0.998000	1.694662
0.998500	1.693070
0.999000	1.694025
0.999500	1.694662
1.000000	1.696255
1.000500	1.696574
1.001000	1.695299
1.001500	1.694344
1.002000	1.694025
1.002500	1.693388
1.003000	1.694344
1.003500	1.693707
1.004000	1.694344
1.004500	1.695299
1.005000	1.693388
1.005500	1.692433
1.006000	1.691477
1.006500	1.692751
1.007000	1.694025
1.007500	1.694025
1.008000	1.694981
1.008500	1.694981
1.009000	1.694025
1.009500	1.693388
1.010000	1.693388
1.010500	1.694662
1.011000	1.694981
1.011500	1.696255
1.012000	1.696574
1.012500	1.695299
1.013000	1.694981
1.013500	1.694025
1.014000	1.694025
1.014500	1.693388
1.015000	1.693707
1.015500	1.694344
1.016000	1.694981
1.016500	1.694344
1.017000	1.692751
1.017500	1.691158
1.018000	1.691796
1.018500	1.693388
1.019000	1.694344
1.019500	1.694344
1.020000	1.695299
1.020500	1.694981
1.021000	1.694344
1.021500	1.693388
1.022000	1.693707
1.022500	1.694662
1.023000	1.695618
1.023500	1.696255
1.024000	1.695618
1.024500	1.694344
1.025000	1.694344
1.025500	1.694025
1.026000	1.692751
1.026500	1.693707
1.027000	1.694025
1.027500	1.694344
1.028000	1.693707
1.028500	1.693070
1.029000	1.691796
1.029500	1.691796
1.030000	1.693070
1.030500	1.694662
1.031000	1.694981
1.031500	1.694981
1.032000	1.694662
1.032500	1.693388
1.033000	1.694025
1.033500	1.694025
1.034000	1.694344
1.034500	1.696255
1.035000	1.697211
1.035500	1.696255
1.036000	1.694344
1.036500	1.693707
1.037000	1.693707
1.037500	1.693388
1.038000	1.693388
1.038500	1.694344
1.039000	1.694344
1.039500	1.694344
1.040000	1.691796
1.040500	1.692114
1.041000	1.691158
1.041500	1.693070
1.042000	1.693070
1.042500	1.693707
1.043000	1.694662
1.043500	1.694662
1.044000	1.694662
1.044500	1.693707
1.045000	1.693070
1.045500	1.694662
1.046000	1.694981
1.046500	1.695937
1.047000	1.695937
1.047500	1.694662
1.048000	1.694025
1.048500	1.693388
1.049000	1.693070
1.049500	1.692433
1.050000	1.693707
1.050500	1.694981
1.051000	1.694662
1.051500	1.692433
1.052000	1.692114
1.052500	1.691477
1.053000	1.692751
1.053500	1.693388
1.054000	1.693707
1.054500	1.694981
1.055000	1.694981
1.055500	1.694344
1.056000	1.693707
1.056500	1.694344
1.057000	1.694025
1.057500	1.695618
1.058000	1.696255
1.058500	1.695937
1.059000	1.694344
1.059500	1.693707
1.060000	1.693388
1.060500	1.692433
1.061000	1.693070
1.061500	1.694344
1.062000	1.693388
1.062500	1.694344
1.063000	1.693070
1.063500	1.691796
1.064000	1.691158
1.064500	1.692751
1.065000	1.692751
1.065500	1.694344
1.066000	1.694344
1.066500	1.694662
1.067000	1.694662
1.067500	1.694344
1.068000	1.693388
1.068500	1.694025
1.069000	1.696255
1.069500	1.696255
1.070000	1.695618
1.070500	1.694981
1.071000	1.693388
1.071500	1.693707
1.072000	1.693070
1.072500	1.693388
1.073000	1.694025
1.073500	1.694025
1.074000	1.694025
1.074500	1.693070
1.075000	1.691796
1.075500	1.692114
1.076000	1.693070
1.076500	1.693707
1.077000	1.694981
1.077500	1.694981
1.078000	1.694981
1.078500	1.693707
1.079000	1.693707
1.079500	1.693707
1.080000	1.694981
1.080500	1.695618
1.081000	1.696255
1.081500	1.694981
1.082000	1.694662
1.082500	1.694344
1.083000	1.693070
1.083500	1.693070
1.084000	1.693707
1.084500	1.693388
1.085000	1.694344
1.085500	1.694025
1.086000	1.692433
1.086500	1.691477
1.087000	1.691796
1.087500	1.693388
1.088000	1.693388
1.088500	1.694025
1.089000	1.694662
1.089500	1.694981
1.090000	1.693707
1.090500	1.693707
1.091000	1.693707
1.091500	1.694662
1.092000	1.695937
1.092500	1.696255
1.093000	1.694981
1.093500	1.694344
1.094000	1.693707
1.094500	1.692433
1.095000	1.693707
1.095500	1.694025
1.096000	1.694981
1.096500	1.694025
1.097000	1.693070
1.097500	1.692114
1.098000	1.691158
1.098500	1.691158
1.099000	1.693070
1.099500	1.694025
1.100000	1.694344
1.100500	1.694344
1.101000	1.694344
1.101500	1.694025
1.102000	1.693707
1.102500	1.694025
1.103000	1.695618
1.103500	1.696255
1.104000	1.696574
1.104500	1.694344
1.105000	1.694025
1.105500	1.693707
1.106000	1.692433
1.106500	1.693070
1.107000	1.692751
1.107500	1.694344
1.108000	1.694344
1.108500	1.694025
1.109000	1.693070
1.109500	1.691796
1.110000	1.693070
1.110500	1.693707
1.111000	1.694025
1.111500	1.694344
1.112000	1.694981
1.112500	1.694344
1.113000	1.694344
1.113500	1.693707
1.114000	1.693707
1.114500	1.694662
1.115000	1.695937
1.115500	1.695937
1.116000	1.695618
1.116500	1.694025
1.117000	1.693707
1.117500	1.692433
1.118000	1.693070
1.118500	1.694025
1.119000	1.694344
1.119500	1.694344
1.120000	1.693388
1.120500	1.691477
1.121000	1.691796
1.121500	1.692433
1.122000	1.693070
1.122500	1.694344
1.123000	1.694025
1.123500	1.694981
1.124000	1.694662
1.124500	1.694662
1.125000	1.694662
1.125500	1.694344
1.126000	1.694981
1.126500	1.696255
1.127000	1.696892
1.127500	1.694981
1.128000	1.694344
1.128500	1.693707
1.129000	1.693707
1.129500	1.693388
1.130000	1.693707
1.130500	1.694981
1.131000	1.694662
1.131500	1.694344
1.132000	1.692433
1.132500	1.690840
1.133000	1.692433
1.133500	1.694344
1.134000	1.694662
1.134500	1.695299
1.135000	1.695299
1.135500	1.694981
1.136000	1.694344
1.136500	1.694344
1.137000	1.693707
1.137500	1.695937
1.138000	1.696892
1.138500	1.696574
1.139000	1.694981
1.139500	1.694662
1.140000	1.694344
1.140500	1.693707
1.141000	1.693388
1.141500	1.694344
1.142000	1.694662
1.142500	1.694662
1.143000	1.694025
1.143500	1.692433
1.144000	1.691477
1.144500	1.692751
1.145000	1.693707
1.145500	1.694344
1.146000	1.694981
1.146500	1.694981
1.147000	1.694662
1.147500	1.694344
1.148000	1.693707
1.148500	1.694662
1.149000	1.694662
1.149500	1.696574
1.150000	1.696892
1.150500	1.695299
1.151000	1.694662
1.151500	1.694662
1.152000	1.693707
1.152500	1.694344
1.153000	1.694662
1.153500	1.694981
1.154000	1.694981
1.154500	1.694344
1.155000	1.692433
1.155500	1.691477
1.156000	1.693707
1.156500	1.694025
1.157000	1.694662
1.157500	1.695299
1.158000	1.695299
1.158500	1.694344
1.159000	1.694344
1.159500	1.693388
1.160000	1.694344
1.160500	1.694344
1.161000	1.696892
1.161500	1.696892
1.162000	1.695618
1.162500	1.694025
1.163000	1.694662
1.163500	1.693388
1.164000	1.693388
1.164500	1.693707
1.165000	1.694662
1.165500	1.694662
1.166000	1.693707
1.166500	1.693070
1.167000	1.691477
1.167500	1.692114
1.168000	1.693388
1.168500	1.694344
1.169000	1.694662
1.169500	1.694981
1.170000	1.695299
1.170500	1.694344
1.171000	1.693388
1.171500	1.693707
1.172000	1.695618
1.172500	1.695937
1.173000	1.695618
1.173500	1.694981
1.174000	1.694025
1.174500	1.692751
1.175000	1.692433
1.175500	1.693707
1.176000	1.693388
1.176500	1.694981
1.177000	1.694025
1.177500	1.693388
1.178000	1.692433
1.178500	1.691158
1.179000	1.692751
1.179500	1.694025
1.180000	1.693388
1.180500	1.694025
1.181000	1.694981
1.181500	1.694344
1.182000	1.694662
1.182500	1.693388
1.183000	1.693707
1.183500	1.694981
1.184000	1.696255
1.184500	1.696574
1.185000	1.694981
1.185500	1.694662
1.186000	1.693388
1.186500	1.692751
1.187000	1.692751
1.187500	1.694025
1.188000	1.694662
1.188500	1.694025
1.189000	1.694344
1.189500	1.691796
1.190000	1.691477
1.190500	1.691796
1.191000	1.693388
1.191500	1.694662
1.192000	1.694662
1.192500	1.694344
1.193000	1.694662
1.193500	1.694025
1.194000	1.693388
1.194500	1.694662
1.195000	1.694981
1.195500	1.696255
1.196000	1.694981
1.196500	1.694662
1.197000	1.693070
1.197500	1.693707
1.198000	1.692114
1.198500	1.693707
1.199000	1.694344
1.199500	1.694662
1.200000	1.694981
1.200500	1.693388
1.201000	1.692114
1.201500	1.691477
1.202000	1.692114
1.202500	1.693707
1.203000	1.694662
1.203500	1.694025
1.204000	1.694662
1.204500	1.694981
1.205000	1.694344
1.205500	1.693707
1.206000	1.693707
1.206500	1.695299
1.207000	1.696255
1.207500	1.696892
1.208000	1.695618
1.208500	1.693707
1.209000	1.693707
1.209500	1.694344
1.210000	1.693707
1.210500	1.694025
1.211000	1.694662
1.211500	1.694981
1.212000	1.694344
1.212500	1.692751
1.213000	1.691477
1.213500	1.692751
1.214000	1.694344
1.214500	1.694981
1.215000	1.694662
1.215500	1.694981
1.216000	1.694662
1.216500	1.694662
1.217000	1.694025
1.217500	1.694344
1.218000	1.695937
1.218500	1.696255
1.219000	1.696574
1.219500	1.695618
1.220000	1.694344
1.220500	1.694025
1.221000	1.693707
1.221500	1.694025
1.222000	1.694662
1.222500	1.694662
1.223000	1.694981
1.223500	1.693388
1.224000	1.692751
1.224500	1.692751
1.225000	1.693388
1.225500	1.693707
1.226000	1.694662
1.226500	1.694662
1.227000	1.694981
1.227500	1.694981
1.228000	1.694662
1.228500	1.693707
1.229000	1.694025
1.229500	1.695299
1.230000	1.696574
1.230500	1.697211
1.231000	1.695618
1.231500	1.694981
1.232000	1.694344
1.232500	1.695937
1.233000	1.693388
1.233500	1.694344
1.234000	1.694662
1.234500	1.694662
1.235000	1.694344
1.235500	1.694025
1.236000	1.692114
1.236500	1.692751
1.237000	1.693707
1.237500	1.694662
1.238000	1.695299
1.238500	1.694662
1.239000	1.695299
1.239500	1.694981
1.240000	1.694344
1.240500	1.694344
1.241000	1.695618
1.241500	1.696892
1.242000	1.697211
1.242500	1.695937
1.243000	1.695299
1.243500	1.693707
1.244000	1.693707
1.244500	1.693707
1.245000	1.694025
1.245500	1.694981
1.246000	1.694662
1.246500	1.694025
1.247000	1.693388
1.247500	1.692433
1.248000	1.692433
1.248500	1.693070
1.249000	1.694662
1.249500	1.694981
1.250000	1.694981
1.250500	1.695299
1.251000	1.694662
1.251500	1.694344
1.252000	1.694025
1.252500	1.694662
1.253000	1.695618
1.253500	1.697211
1.254000	1.695937
1.254500	1.695618
1.255000	1.695299
1.255500	1.694662
1.256000	1.694344
1.256500	1.694025
1.257000	1.694662
1.257500	1.695299
1.258000	1.694662
1.258500	1.694025
1.259000	1.692114
1.259500	1.691796
1.260000	1.694025
1.260500	1.694344
1.261000	1.695299
1.261500	1.695937
1.262000	1.695618
1.262500	1.694981
1.263000	1.694981
1.263500	1.694025
1.264000	1.694662
1.264500	1.694981
1.265000	1.697529
1.265500	1.696574
1.266000	1.695618
1.266500	1.694662
1.267000	1.693707
1.267500	1.694025
1.268000	1.694344
1.268500	1.694981
1.269000	1.694662
1.269500	1.694662
1.270000	1.694662
1.270500	1.692751
1.271000	1.692751
1.271500	1.692751
1.272000	1.694025
1.272500	1.694344
1.273000	1.695299
1.273500	1.694981
1.274000	1.694662
1.274500	1.694025
1.275000	1.694981
1.275500	1.694344
1.276000	1.695937
1.276500	1.696892
1.277000	1.696574
1.277500	1.695299
1.278000	1.694662
1.278500	1.694025
1.279000	1.693388
1.279500	1.694344
1.280000	1.694662
1.280500	1.695299
1.281000	1.694981
1.281500	1.693388
1.282000	1.692433
1.282500	1.692751
1.283000	1.693070
1.283500	1.694025
1.284000	1.694662
1.284500	1.695299
1.285000	1.694981
1.285500	1.694981
1.286000	1.694981
1.286500	1.693707
1.287000	1.694344
1.287500	1.694981
1.288000	1.696892
1.288500	1.697211
1.289000	1.695618
1.289500	1.694662
1.290000	1.694344
1.290500	1.693070
1.291000	1.694025
1.291500	1.694025
1.292000	1.695299
1.292500	1.694662
1.293000	1.695299
1.293500	1.693070
1.294000	1.691796
1.294500	1.691477
1.295000	1.693707
1.295500	1.694981
1.296000	1.694662
1.296500	1.695299
1.297000	1.694981
1.297500	1.694344
1.298000	1.693707
1.298500	1.693707
1.299000	1.694662
1.299500	1.697529
1.300000	1.696892
1.300500	1.695937
1.301000	1.694981
1.301500	1.694344
1.302000	1.693707
1.302500	1.694025
1.303000	1.694662
1.303500	1.694981
1.304000	1.694981
1.304500	1.694025
1.305000	1.692751
1.305500	1.692751
1.306000	1.692114
1.306500	1.693707
1.307000	1.694344
1.307500	1.694344
1.308000	1.694662
1.308500	1.694981
1.309000	1.694662
1.309500	1.694344
1.310000	1.693707
1.310500	1.694662
1.311000	1.695299
1.311500	1.696574
1.312000	1.696255
1.312500	1.695299
1.313000	1.694025
1.313500	1.694344
1.314000	1.692751
1.314500	1.693707
1.315000	1.694344
1.315500	1.695618
1.316000	1.694662
1.316500	1.693707
1.317000	1.692751
1.317500	1.691158
1.318000	1.692433
1.318500	1.693070
1.319000	1.694025
1.319500	1.694981
1.320000	1.694981
1.320500	1.694981
1.321000	1.694344
1.321500	1.693388
1.322000	1.693707
1.322500	1.694662
1.323000	1.696574
1.323500	1.696255
1.324000	1.694981
1.324500	1.693707
1.325000	1.694025
1.325500	1.693070
1.326000	1.693707
1.326500	1.694344
1.327000	1.694981
1.327500	1.694981
1.328000	1.693707
1.328500	1.692433
1.329000	1.691158
1.329500	1.691477
1.330000	1.693388
1.330500	1.694344
1.331000	1.694981
1.331500	1.694662
1.332000	1.694981
1.332500	1.694344
1.333000	1.693070
1.333500	1.694344
1.334000	1.694981
1.334500	1.696255
1.335000	1.696892
1.335500	1.695618
1.336000	1.694662
1.336500	1.694025
1.337000	1.693707
1.337500	1.693707
1.338000	1.693707
1.338500	1.694344
1.339000	1.694981
1.339500	1.694662
1.340000	1.693388
1.340500	1.691477
1.341000	1.691796
1.341500	1.692751
1.342000	1.693707
1.342500	1.694662
1.343000	1.694981
1.343500	1.694662
1.344000	1.694344
1.344500	1.693388
1.345000	1.694344
1.345500	1.694981
1.346000	1.696255
1.346500	1.696892
1.347000	1.695937
1.347500	1.694981
1.348000	1.693707
1.348500	1.693070
1.349000	1.693707
1.349500	1.694025
1.350000	1.694344
1.350500	1.695299
1.351000	1.694344
1.351500	1.693070
1.352000	1.691477
1.352500	1.692433
1.353000	1.693388
1.353500	1.694662
1.354000	1.694662
1.354500	1.695299
1.355000	1.694662
1.355500	1.694981
1.356000	1.693707
1.356500	1.693707
1.357000	1.694662
1.357500	1.695937
1.358000	1.697211
1.358500	1.696255
1.359000	1.694662
1.359500	1.693707
1.360000	1.692751
1.360500	1.692751
1.361000	1.693707
1.361500	1.694344
1.362000	1.694025
1.362500	1.693388
1.363000	1.691477
1.363500	1.691796
1.364000	1.692114
1.364500	1.693707
1.365000	1.693707
1.365500	1.694025
1.366000	1.694662
1.366500	1.694662
1.367000	1.694025
1.367500	1.693707
1.368000	1.693388
1.368500	1.694662
1.369000	1.695618
1.369500	1.696574
1.370000	1.694981
1.370500	1.694025
1.371000	1.694025
1.371500	1.693707
1.372000	1.692751
1.372500	1.693070
1.373000	1.693388
1.373500	1.693707
1.374000	1.693388
1.374500	1.690521
1.375000	1.690521
1.375500	1.692114
1.376000	1.693070
1.376500	1.693388
1.377000	1.694025
1.377500	1.694344
1.378000	1.693707
1.378500	1.694025
1.379000	1.693707
1.379500	1.692751
1.380000	1.694025
1.380500	1.695299
1.381000	1.695618
1.381500	1.694981
1.382000	1.694344
1.382500	1.693707
1.383000	1.693070
1.383500	1.692751
1.384000	1.692751
1.384500	1.693707
1.385000	1.694025
1.385500	1.693388
1.386000	1.691796
1.386500	1.690840
1.387000	1.690521
1.387500	1.692114
1.388000	1.693707
1.388500	1.694025
1.389000	1.693707
1.389500	1.694025
1.390000	1.693388
1.390500	1.692433
1.391000	1.693707
1.391500	1.694025
1.392000	1.694981
1.392500	1.695299
1.393000	1.694981
1.393500	1.693707
1.394000	1.692751
1.394500	1.692114
1.395000	1.692114
1.395500	1.692751
1.396000	1.694025
1.396500	1.693707
1.397000	1.692114
1.397500	1.691477
1.398000	1.690521
1.398500	1.690521
1.399000	1.692751
1.399500	1.693388
1.400000	1.693707
1.400500	1.694025
1.401000	1.694025
1.401500	1.693388
1.402000	1.692433
1.402500	1.692433
1.403000	1.694981
1.403500	1.695618
1.404000	1.696574
1.404500	1.694981
1.405000	1.693707
1.405500	1.693707
1.406000	1.692114
1.406500	1.692433
1.407000	1.693707
1.407500	1.693388
1.408000	1.693707
1.408500	1.692751
1.409000	1.691796
1.409500	1.691158
1.410000	1.691158
1.410500	1.692751
1.411000	1.693707
1.411500	1.693388
1.412000	1.694662
1.412500	1.694662
1.413000	1.694025
1.413500	1.693707
1.414000	1.693388
1.414500	1.694662
1.415000	1.695618
1.415500	1.696255
1.416000	1.694981
1.416500	1.694344
1.417000	1.693070
1.417500	1.692751
1.418000	1.692433
1.418500	1.693070
1.419000	1.694344
1.419500	1.694025
1.420000	1.693388
1.420500	1.692433
1.421000	1.690840
1.421500	1.691796
1.422000	1.693070
1.422500	1.693707
1.423000	1.694025
1.423500	1.694981
1.424000	1.694662
1.424500	1.694344
1.425000	1.693388
1.425500	1.694344
1.426000	1.694662
1.426500	1.695618
1.427000	1.696892
1.427500	1.695618
1.428000	1.693388
1.428500	1.694025
1.429000	1.693388
1.429500	1.693070
1.430000	1.692433
1.430500	1.694344
1.431000	1.694662
1.431500	1.693388
1.432000	1.692751
1.432500	1.689884
1.433000	1.691796
1.433500	1.693070
1.434000	1.693388
1.434500	1.693707
1.435000	1.694662
1.435500	1.694662
1.436000	1.694025
1.436500	1.693388
1.437000	1.693070
1.437500	1.694662
1.438000	1.695937
1.438500	1.696255
1.439000	1.695618
1.439500	1.694025
1.440000	1.693388
1.440500	1.693070
1.441000	1.693070
1.441500	1.693070
1.442000	1.694981
1.442500	1.694025
1.443000	1.693388
1.443500	1.692433
1.444000	1.691158
1.444500	1.691477
1.445000	1.693070
1.445500	1.693388
1.446000	1.694662
1.446500	1.694981
1.447000	1.694662
1.447500	1.694025
1.448000	1.694025
1.448500	1.694344
1.449000	1.694344
1.449500	1.696255
1.450000	1.696574
1.450500	1.695618
1.451000	1.694662
1.451500	1.693707
1.452000	1.694025
1.452500	1.692433
1.453000	1.693070
1.453500	1.693388
1.454000	1.694025
1.454500	1.694025
1.455000	1.692433
1.455500	1.691158
1.456000	1.690840
1.456500	1.691796
1.457000	1.693388
1.457500	1.693070
1.458000	1.694344
1.458500	1.694981
1.459000	1.694662
1.459500	1.693707
1.460000	1.693388
1.460500	1.694025
1.461000	1.695937
1.461500	1.696574
1.462000	1.695618
1.462500	1.694981
1.463000	1.694662
1.463500	1.694344
1.464000	1.693388
1.464500	1.692751
1.465000	1.694025
1.465500	1.694662
1.466000	1.694662
1.466500	1.694344
1.467000	1.692114
1.467500	1.691158
1.468000	1.692433
1.468500	1.692751
1.469000	1.694025
1.469500	1.694025
1.470000	1.694981
1.470500	1.694662
1.471000	1.693707
1.471500	1.693388
1.472000	1.693388
1.472500	1.694981
1.473000	1.696255
1.473500	1.695937
1.474000	1.695299
1.474500	1.694981
1.475000	1.693070
1.475500	1.693388
1.476000	1.693070
1.476500	1.694025
1.477000	1.694662
1.477500	1.694344
1.478000	1.694025
1.478500	1.692114
1.479000	1.691477
1.479500	1.691477
1.480000	1.692751
1.480500	1.693388
1.481000	1.694662
1.481500	1.694662
1.482000	1.694025
1.482500	1.694025
1.483000	1.693388
1.483500	1.694025
1.484000	1.693707
1.484500	1.695299
1.485000	1.696574
1.485500	1.696255
1.486000	1.694662
1.486500	1.694662
1.487000	1.693070
1.487500	1.693388
1.488000	1.692433
1.488500	1.694344
1.489000	1.694344
1.489500	1.693707
1.490000	1.692751
1.490500	1.691796
1.491000	1.690840
1.491500	1.692433
1.492000	1.693707
1.492500	1.694025
1.493000	1.694662
1.493500	1.694981
1.494000	1.694662
1.494500	1.693707
1.495000	1.693388
1.495500	1.694344
1.496000	1.695299
1.496500	1.695937
1.497000	1.695618
1.497500	1.694662
1.498000	1.693707
1.498500	1.693070
1.499000	1.693070
1.499500	1.692751
1.500000	1.693388
1.500500	1.693388
1.501000	1.694344
1.501500	1.693070
1.502000	1.692114
1.502500	1.691158
1.503000	1.691796
1.503500	1.693070
1.504000	1.694025
1.504500	1.694662
1.505000	1.694025
1.505500	1.694344
1.506000	1.693707
1.506500	1.692751
1.507000	1.694025
1.507500	1.694662
1.508000	1.695937
1.508500	1.695937
1.509000	1.695299
1.509500	1.694344
1.510000	1.694025
1.510500	1.692751
1.511000	1.693070
1.511500	1.693070
1.512000	1.694025
1.512500	1.694344
1.513000	1.693707
1.513500	1.692751
1.514000	1.691158
1.514500	1.690840
1.515000	1.692433
1.515500	1.692751
1.516000	1.694662
1.516500	1.694662
1.517000	1.694344
1.517500	1.694025
1.518000	1.694344
1.518500	1.693707
1.519000	1.694344
1.519500	1.694981
1.520000	1.696255
1.520500	1.695618
1.521000	1.694344
1.521500	1.694344
1.522000	1.693388
1.522500	1.693388
1.523000	1.693707
1.523500	1.693707
1.524000	1.694344
1.524500	1.693388
1.525000	1.693707
1.525500	1.693070
1.526000	1.691796
1.526500	1.692751
1.527000	1.693388
1.527500	1.694344
1.528000	1.694662
1.528500	1.694981
1.529000	1.694344
1.529500	1.694981
1.530000	1.693707
1.530500	1.694344
1.531000	1.694344
1.531500	1.695937
1.532000	1.696892
1.532500	1.696255
1.533000	1.694344
1.533500	1.694981
1.534000	1.693707
1.534500	1.693707
1.535000	1.693707
1.535500	1.694344
1.536000	1.694662
1.536500	1.694662
1.537000	1.693388
1.537500	1.692114
1.538000	1.692433
1.538500	1.692433
1.539000	1.693707
1.539500	1.694662
1.540000	1.694981
1.540500	1.695299
1.541000	1.695618
1.541500	1.694025
1.542000	1.693707
1.542500	1.694344
1.543000	1.696255
1.543500	1.697529
1.544000	1.696255
1.544500	1.694981
1.545000	1.694662
1.545500	1.695299
1.546000	1.693707
1.546500	1.694344
1.547000	1.694981
1.547500	1.694662
1.548000	1.694344
1.548500	1.693388
1.549000	1.692433
1.549500	1.691796
1.550000	1.692751
1.550500	1.693388
1.551000	1.694344
1.551500	1.695618
1.552000	1.695299
1.552500	1.694981
1.553000	1.694344
1.553500	1.693707
1.554000	1.694662
1.554500	1.695937
1.555000	1.696574
1.555500	1.696255
1.556000	1.694981
1.556500	1.694344
1.557000	1.694662
1.557500	1.693388
1.558000	1.694025
1.558500	1.694344
1.559000	1.695299
1.559500	1.695618
1.560000	1.694344
1.560500	1.693070
1.561000	1.693070
1.561500	1.692433
1.562000	1.693707
1.562500	1.694662
1.563000	1.694662
1.563500	1.695937
1.564000	1.694662
1.564500	1.694662
1.565000	1.694344
1.565500	1.694662
1.566000	1.695299
1.566500	1.696255
1.567000	1.697211
1.567500	1.695937
1.568000	1.694981
1.568500	1.694344
1.569000	1.693707
1.569500	1.693707
1.570000	1.693070
1.570500	1.694344
1.571000	1.694662
1.571500	1.694344
1.572000	1.693388
1.572500	1.691158
1.573000	1.691477
1.573500	1.693388
1.574000	1.694344
1.574500	1.694981
1.575000	1.694981
1.575500	1.694662
1.576000	1.694981
1.576500	1.693388
1.577000	1.693707
1.577500	1.694662
1.578000	1.695937
1.578500	1.696255
1.579000	1.695937
1.579500	1.694981
1.580000	1.693707
1.580500	1.692751
1.581000	1.693707
1.581500	1.693070
1.582000	1.693707
1.582500	1.694344
1.583000	1.693707
1.583500	1.692751
1.584000	1.691158
1.584500	1.691477
1.585000	1.693388
1.585500	1.694025
1.586000	1.694025
1.586500	1.694344
1.587000	1.694981
1.587500	1.694662
1.588000	1.693388
1.588500	1.692751
1.589000	1.694344
1.589500	1.694662
1.590000	1.696574
1.590500	1.695937
1.591000	1.694344
1.591500	1.694025
1.592000	1.693388
1.592500	1.693070
1.593000	1.692751
1.593500	1.694981
1.594000	1.694662
1.594500	1.694662
1.595000	1.693707
1.595500	1.691796
1.596000	1.691158
1.596500	1.692114
1.597000	1.693388
1.597500	1.694025
1.598000	1.694662
1.598500	1.694981
1.599000	1.694662
1.599500	1.694344
1.600000	1.693388
1.600500	1.694025
1.601000	1.694025
1.601500	1.696255
1.602000	1.696574
1.602500	1.694981
1.603000	1.694025
1.603500	1.693707
1.604000	1.693388
1.604500	1.693388
1.605000	1.693707
1.605500	1.694662
1.606000	1.694981
1.606500	1.694025
1.607000	1.692433
1.607500	1.691796
1.608000	1.690840
1.608500	1.692751
1.609000	1.693388
1.609500	1.694662
1.610000	1.694981
1.610500	1.694344
1.611000	1.694662
1.611500	1.693388
1.612000	1.693388
1.612500	1.694025
1.613000	1.694981
1.613500	1.696255
1.614000	1.695937
1.614500	1.694981
1.615000	1.694662
1.615500	1.694025
1.616000	1.692433
1.616500	1.693070
1.617000	1.693388
1.617500	1.694344
1.618000	1.694981
1.618500	1.693707
1.619000	1.692114
1.619500	1.691158
1.620000	1.691796
1.620500	1.694344
1.621000	1.693707
1.621500	1.694981
1.622000	1.694981
1.622500	1.695299
1.623000	1.694344
1.623500	1.693388
1.624000	1.694025
1.624500	1.694981
1.625000	1.696255
1.625500	1.697848
1.626000	1.695618
1.626500	1.694344
1.627000	1.693707
1.627500	1.693388
1.628000	1.692114
1.628500	1.693070
1.629000	1.694344
1.629500	1.694662
1.630000	1.693707
1.630500	1.692114
1.631000	1.691796
1.631500	1.692114
1.632000	1.693070
1.632500	1.694344
1.633000	1.694662
1.633500	1.694662
1.634000	1.694662
1.634500	1.694981
1.635000	1.693388
1.635500	1.694025
1.636000	1.694662
1.636500	1.696255
1.637000	1.696255
1.637500	1.696892
1.638000	1.695299
1.638500	1.693388
1.639000	1.693707
1.639500	1.693070
1.640000	1.693388
1.640500	1.694025
1.641000	1.694025
1.641500	1.694981
1.642000	1.694025
1.642500	1.692751
1.643000	1.691796
1.643500	1.692114
1.644000	1.693070
1.644500	1.694344
1.645000	1.694662
1.645500	1.695618
1.646000	1.694981
1.646500	1.693388
1.647000	1.693388
1.647500	1.693388
1.648000	1.694981
1.648500	1.696255
1.649000	1.695618
1.649500	1.695299
1.650000	1.694025
1.650500	1.693707
1.651000	1.693388
1.651500	1.693070
1.652000	1.693707
1.652500	1.694662
1.653000	1.694344
1.653500	1.693707
1.654000	1.692114
1.654500	1.691158
1.655000	1.691477
1.655500	1.693070
1.656000	1.694025
1.656500	1.694025
1.657000	1.694981
1.657500	1.694981
1.658000	1.694344
1.658500	1.692433
1.659000	1.693707
1.659500	1.694662
1.660000	1.695618
1.660500	1.696255
1.661000	1.695299
1.661500	1.694025
1.662000	1.693388
1.662500	1.692751
1.663000	1.692433
1.663500	1.693388
1.664000	1.694344
1.664500	1.694344
1.665000	1.694344
1.665500	1.692751
1.666000	1.690203
1.666500	1.690840
1.667000	1.692751
1.667500	1.693707
1.668000	1.694344
1.668500	1.694662
1.669000	1.694662
1.669500	1.693707
1.670000	1.693707
1.670500	1.692433
1.671000	1.694662
1.671500	1.694981
1.672000	1.695937
1.672500	1.695618
1.673000	1.694981
1.673500	1.693707
1.674000	1.692751
1.674500	1.693707
1.675000	1.692751
1.675500	1.692751
1.676000	1.694344
1.676500	1.693707
1.677000	1.692433
1.677500	1.691796
1.678000	1.690203
1.678500	1.692433
1.679000	1.692751
1.679500	1.694344
1.680000	1.694025
1.680500	1.694981
1.681000	1.693707
1.681500	1.693707
1.682000	1.693388
1.682500	1.694344
1.683000	1.694662
1.683500	1.696255
1.684000	1.696892
1.684500	1.695937
1.685000	1.694344
1.685500	1.693707
1.686000	1.693070
1.686500	1.693070
1.687000	1.693707
1.687500	1.694662
1.688000	1.694025
1.688500	1.693707
1.689000	1.692433
1.689500	1.691158
1.690000	1.691477
1.690500	1.692751
1.691000	1.694025
1.691500	1.694025
1.692000	1.694662
1.692500	1.694025
1.693000	1.694344
1.693500	1.693707
1.694000	1.693388
1.694500	1.694662
1.695000	1.696574
1.695500	1.696255
1.696000	1.695299
1.696500	1.694344
1.697000	1.693707
1.697500	1.693070
1.698000	1.692114
1.698500	1.693388
1.699000	1.693388
1.699500	1.694025
1.700000	1.693388
1.700500	1.692114
1.701000	1.690203
1.701500	1.690203
1.702000	1.691477
1.702500	1.693707
1.703000	1.693070
1.703500	1.693707
1.704000	1.694344
1.704500	1.693707
1.705000	1.693707
1.705500	1.693707
1.706000	1.694344
1.706500	1.695937
1.707000	1.695937
1.707500	1.694662
1.708000	1.694025
1.708500	1.693388
1.709000	1.692433
1.709500	1.692751
1.710000	1.691796
1.710500	1.693388
1.711000	1.693707
1.711500	1.692751
1.712000	1.692433
1.712500	1.690203
1.713000	1.691796
1.713500	1.692433
1.714000	1.693388
1.714500	1.693707
1.715000	1.694025
1.715500	1.694662
1.716000	1.693707
1.716500	1.692751
1.717000	1.693070
1.717500	1.693707
1.718000	1.694981
1.718500	1.695937
1.719000	1.694662
1.719500	1.692433
1.720000	1.693707
1.720500	1.691796
1.721000	1.693070
1.721500	1.692751
1.722000	1.693070
1.722500	1.694025
1.723000	1.692433
1.723500	1.691796
1.724000	1.690521
1.724500	1.691158
1.725000	1.692433
1.725500	1.692751
1.726000	1.693388
1.726500	1.694344
1.727000	1.693707
1.727500	1.693707
1.728000	1.692433
1.728500	1.693388
1.729000	1.693388
1.729500	1.694981
1.730000	1.695299
1.730500	1.695299
1.731000	1.694025
1.731500	1.692751
1.732000	1.692751
1.732500	1.692433
1.733000	1.692433
1.733500	1.693707
1.734000	1.693707
1.734500	1.693707
1.735000	1.692433
1.735500	1.690203
1.736000	1.690203
1.736500	1.691477
1.737000	1.692751
1.737500	1.694025
1.738000	1.693707
1.738500	1.693388
1.739000	1.694025
1.739500	1.693388
1.740000	1.692751
1.740500	1.693070
1.741000	1.694025
1.741500	1.695618
1.742000	1.695299
1.742500	1.694025
1.743000	1.693070
1.743500	1.693070
1.744000	1.692433
1.744500	1.691158
1.745000	1.693070
1.745500	1.693070
1.746000	1.694025
1.746500	1.693388
1.747000	1.691158
1.747500	1.691158
1.748000	1.690203
1.748500	1.691796
1.749000	1.693707
1.749500	1.694025
1.750000	1.694344
1.750500	1.693070
1.751000	1.693388
1.751500	1.693070
1.752000	1.692751
1.752500	1.694025
1.753000	1.694981
1.753500	1.695618
1.754000	1.695299
1.754500	1.693388
1.755000	1.692751
1.755500	1.693070
1.756000	1.692433
1.756500	1.693707
1.757000	1.693070
1.757500	1.694662
1.758000	1.692751
1.758500	1.692433
1.759000	1.691158
1.759500	1.691158
1.760000	1.691477
1.760500	1.692751
1.761000	1.694344
1.761500	1.694344
1.762000	1.693707
1.762500	1.694344
1.763000	1.693070
1.763500	1.692751
1.764000	1.693388
1.764500	1.694981
1.765000	1.696255
1.765500	1.695937
1.766000	1.695299
1.766500	1.693070
1.767000	1.693070
1.767500	1.693070
1.768000	1.692433
1.768500	1.692433
1.769000	1.693070
1.769500	1.694025
1.770000	1.693070
1.770500	1.691158
1.771000	1.690203
1.771500	1.690840
1.772000	1.692751
1.772500	1.693707
1.773000	1.694025
1.773500	1.694025
1.774000	1.694344
1.774500	1.693388
1.775000	1.693388
1.775500	1.693070
1.776000	1.694662
1.776500	1.695618
1.777000	1.695937
1.777500	1.694662
1.778000	1.694344
1.778500	1.693388
1.779000	1.693070
1.779500	1.692433
1.780000	1.692433
1.780500	1.692751
1.781000	1.694025
1.781500	1.693388
1.782000	1.692433
1.782500	1.691158
1.783000	1.690521
1.783500	1.692114
1.784000	1.692433
1.784500	1.693070
1.785000	1.694662
1.785500	1.694025
1.786000	1.694025
1.786500	1.693388
1.787000	1.693070
1.787500	1.693070
1.788000	1.694344
1.788500	1.695299
1.789000	1.695618
1.789500	1.694981
1.790000	1.693070
1.790500	1.692114
1.791000	1.692433
1.791500	1.692433
1.792000	1.693707
1.792500	1.693070
1.793000	1.693388
1.793500	1.693070
1.794000	1.690840
1.794500	1.690203
1.795000	1.691158
1.795500	1.692433
1.796000	1.693070
1.796500	1.693707
1.797000	1.693707
1.797500	1.693070
1.798000	1.692433
1.798500	1.692751
1.799000	1.692114
1.799500	1.694025
1.800000	1.694662
1.800500	1.694662
1.801000	1.694662
1.801500	1.694025
1.802000	1.692433
1.802500	1.691158
1.803000	1.691796
1.803500	1.692433
1.804000	1.693070
1.804500	1.693070
1.805000	1.692751
1.805500	1.691158
1.806000	1.689247
1.806500	1.690840
1.807000	1.691796
1.807500	1.693070
1.808000	1.692751
1.808500	1.693707
1.809000	1.692751
1.809500	1.692751
1.810000	1.692114
1.810500	1.692114
1.811000	1.693707
1.811500	1.695618
1.812000	1.695618
1.812500	1.693707
1.813000	1.693070
1.813500	1.692114
1.814000	1.691796
1.814500	1.691796
1.815000	1.692433
1.815500	1.693707
1.816000	1.693070
1.816500	1.692433
1.817000	1.691158
1.817500	1.689884
1.818000	1.691158
1.818500	1.692114
1.819000	1.693070
1.819500	1.693707
1.820000	1.694344
1.820500	1.693388
1.821000	1.692751
1.821500	1.693070
1.822000	1.692433
1.822500	1.694344
1.823000	1.695299
1.823500	1.695299
1.824000	1.694662
1.824500	1.693707
1.825000	1.692433
1.825500	1.692751
1.826000	1.692751
1.826500	1.692433
1.827000	1.693388
1.827500	1.694025
1.828000	1.692751
1.828500	1.691158
1.829000	1.689884
1.829500	1.691158
1.830000	1.692114
1.830500	1.693070
1.831000	1.694344
1.831500	1.694025
1.832000	1.694344
1.832500	1.694344
1.833000	1.693070
1.833500	1.693070
1.834000	1.694981
1.834500	1.695299
1.835000	1.696574
1.835500	1.694981
1.836000	1.694344
1.836500	1.693070
1.837000	1.692433
1.837500	1.692114
1.838000	1.692433
1.838500	1.693388
1.839000	1.693388
1.839500	1.694025
1.840000	1.691796
1.840500	1.691158
1.841000	1.691158
1.841500	1.691796
1.842000	1.693070
1.842500	1.693070
1.843000	1.694662
1.843500	1.693707
1.844000	1.694344
1.844500	1.693070
1.845000	1.692751
1.845500	1.693388
1.846000	1.694344
1.846500	1.696574
1.847000	1.695299
1.847500	1.694662
1.848000	1.693070
1.848500	1.692433
1.849000	1.692114
1.849500	1.691158
1.850000	1.692114
1.850500	1.693070
1.851000	1.693707
1.851500	1.691796
1.852000	1.690840
1.852500	1.690521
1.853000	1.691477
1.853500	1.692751
1.854000	1.693070
1.854500	1.693388
1.855000	1.694662
1.855500	1.693070
1.856000	1.693070
1.856500	1.691796
1.857000	1.693070
1.857500	1.694344
1.858000	1.694662
1.858500	1.695618
1.859000	1.694662
1.859500	1.693388
1.860000	1.691477
1.860500	1.692433
1.861000	1.691796
1.861500	1.692114
1.862000	1.692751
1.862500	1.693707
1.863000	1.693070
1.863500	1.691477
1.864000	1.690203
1.864500	1.689566
1.865000	1.692114
1.865500	1.693388
1.866000	1.693070
1.866500	1.694025
1.867000	1.694025
1.867500	1.692751
1.868000	1.693388
1.868500	1.692433
1.869000	1.693070
1.869500	1.694662
1.870000	1.694662
1.870500	1.694662
1.871000	1.693388
1.871500	1.692433
1.872000	1.691796
1.872500	1.692433
1.873000	1.691158
1.873500	1.693070
1.874000	1.693707
1.874500	1.693388
1.875000	1.691158
1.875500	1.689884
1.876000	1.691158
1.876500	1.691796
1.877000	1.693707
1.877500	1.693070
1.878000	1.693707
1.878500	1.693707
1.879000	1.693070
1.879500	1.692433
1.880000	1.693070
1.880500	1.694025
1.881000	1.694981
1.881500	1.694981
1.882000	1.694662
1.882500	1.693388
1.883000	1.692433
1.883500	1.691796
1.884000	1.691796
1.884500	1.692751
1.885000	1.693388
1.885500	1.693707
1.886000	1.693388
1.886500	1.691796
1.887000	1.689884
1.887500	1.690203
1.888000	1.691796
1.888500	1.693707
1.889000	1.694025
1.889500	1.694344
1.890000	1.694344
1.890500	1.693388
1.891000	1.692751
1.891500	1.693070
1.892000	1.694025
1.892500	1.694981
1.893000	1.695299
1.893500	1.694344
1.894000	1.693388
1.894500	1.692751
1.895000	1.692114
1.895500	1.691796
1.896000	1.693070
1.896500	1.694025
1.897000	1.693707
1.897500	1.693388
1.898000	1.689884
1.898500	1.690521
1.899000	1.690521
1.899500	1.692433
1.900000	1.693388
1.900500	1.693707
1.901000	1.694662
1.901500	1.694025
1.902000	1.693070
1.902500	1.692433
1.903000	1.692433
1.903500	1.694344
1.904000	1.695299
1.904500	1.695299
1.905000	1.694025
1.905500	1.692751
1.906000	1.692114
1.906500	1.691796
1.907000	1.692114
1.907500	1.693388
1.908000	1.694344
1.908500	1.693707
1.909000	1.692114
1.909500	1.691158
1.910000	1.690203
1.910500	1.691477
1.911000	1.693070
1.911500	1.693388
1.912000	1.694344
1.912500	1.694025
1.913000	1.693388
1.913500	1.692114
1.914000	1.691796
1.914500	1.693070
1.915000	1.694344
1.915500	1.695299
1.916000	1.694981
1.916500	1.694025
1.917000	1.692433
1.917500	1.693070
1.918000	1.692114
1.918500	1.693070
1.919000	1.692114
1.919500	1.693070
1.920000	1.693388
1.920500	1.692114
1.921000	1.690203
1.921500	1.691477
1.922000	1.691477
1.922500	1.692433
1.923000	1.693388
1.923500	1.694025
1.924000	1.694662
1.924500	1.692751
1.925000	1.692751
1.925500	1.692433
1.926000	1.692433
1.926500	1.694025
1.927000	1.694981
1.927500	1.695618
1.928000	1.694344
1.928500	1.693070
1.929000	1.691796
1.929500	1.692114
1.930000	1.692114
1.930500	1.692433
1.931000	1.692751
1.931500	1.694025
1.932000	1.692751
1.932500	1.691477
1.933000	1.690521
1.933500	1.691477
1.934000	1.692751
1.934500	1.693070
1.935000	1.693707
1.935500	1.694344
1.936000	1.693388
1.936500	1.692751
1.937000	1.692751
1.937500	1.692433
1.938000	1.693707
1.938500	1.695299
1.939000	1.695618
1.939500	1.694981
1.940000	1.693707
1.940500	1.692114
1.941000	1.692433
1.941500	1.692114
1.942000	1.692433
1.942500	1.693388
1.943000	1.693388
1.943500	1.692751
1.944000	1.692433
1.944500	1.690203
1.945000	1.691477
1.945500	1.691158
1.946000	1.692751
1.946500	1.694025
1.947000	1.694025
1.947500	1.694344
1.948000	1.693070
1.948500	1.692433
1.949000	1.693070
1.949500	1.693707
1.950000	1.694981
1.950500	1.695618
1.951000	1.695618
1.951500	1.693707
1.952000	1.693388
1.952500	1.692751
1.953000	1.692433
1.953500	1.693070
1.954000	1.692751
1.954500	1.693388
1.955000	1.693388
1.955500	1.693388
1.956000	1.692433
1.956500	1.690521
1.957000	1.691477
1.957500	1.692751
1.958000	1.693388
1.958500	1.694344
1.959000	1.694662
1.959500	1.694025
1.960000	1.692114
1.960500	1.692751
1.961000	1.693388
1.961500	1.694662
1.962000	1.695618
1.962500	1.695618
1.963000	1.694344
1.963500	1.693388
1.964000	1.693388
1.964500	1.691796
1.965000	1.693070
1.965500	1.692751
1.966000	1.694981
1.966500	1.694025
1.967000	1.693070
1.967500	1.690840
1.968000	1.691158
1.968500	1.691477
1.969000	1.692751
1.969500	1.693388
1.970000	1.693707
1.970500	1.694025
1.971000	1.693707
1.971500	1.693388
1.972000	1.693070
1.972500	1.693070
1.973000	1.694344
1.973500	1.694981
1.974000	1.695618
1.974500	1.694344
1.975000	1.693070
1.975500	1.693388
1.976000	1.691796
1.976500	1.692433
1.977000	1.693388
1.977500	1.693707
1.978000	1.693388
1.978500	1.692433
1.979000	1.690840
1.979500	1.690203
1.980000	1.691158
1.980500	1.692751
1.981000	1.693070
1.981500	1.693388
1.982000	1.693707
1.982500	1.694344
1.983000	1.693070
1.983500	1.692433
1.984000	1.693707
1.984500	1.694344
1.985000	1.694981
1.985500	1.696255
1.986000	1.693707
1.986500	1.693707
1.987000	1.692751
1.987500	1.691796
1.988000	1.692114
1.988500	1.693707
1.989000	1.694344
1.989500	1.694025
1.990000	1.693070
1.990500	1.691796
1.991000	1.691158
1.991500	1.690840
1.992000	1.691796
1.992500	1.692433
1.993000	1.693388
1.993500	1.694025
1.994000	1.693388
1.994500	1.693070
1.995000	1.692114
1.995500	1.693070
1.996000	1.694025
1.996500	1.695299
1.997000	1.695299
1.997500	1.694025
1.998000	1.694025
1.998500	1.692433
1.999000	1.692751
1.999500	1.691796
2.000000	1.691796
2.000500	1.694025
2.001000	1.693388
2.001500	1.692751
2.002000	1.691158
2.002500	1.691158
2.003000	1.690840
2.003500	1.692433
2.004000	1.693070
2.004500	1.693388
2.005000	1.694025
2.005500	1.693388
2.006000	1.693388
2.006500	1.693070
2.007000	1.692433
2.007500	1.694662
2.008000	1.695299
2.008500	1.694981
2.009000	1.694344
2.009500	1.693707
2.010000	1.692751
2.010500	1.692751
2.011000	1.692114
2.011500	1.693388
2.012000	1.693388
2.012500	1.693707
2.013000	1.693070
2.013500	1.691158
2.014000	1.691158
2.014500	1.691158
2.015000	1.693388
2.015500	1.693388
2.016000	1.694025
2.016500	1.694025
2.017000	1.694662
2.017500	1.693707
2.018000	1.693070
2.018500	1.693388
2.019000	1.694344
2.019500	1.695299
2.020000	1.695299
2.020500	1.694344
2.021000	1.693070
2.021500	1.693388
2.022000	1.691796
2.022500	1.692114
2.023000	1.693707
2.023500	1.693388
2.024000	1.693388
2.024500	1.691796
2.025000	1.691158
2.025500	1.691477
2.026000	1.691796
2.026500	1.693070
2.027000	1.693388
2.027500	1.694025
2.028000	1.693707
2.028500	1.694025
2.029000	1.692751
2.029500	1.693070
2.030000	1.694662
2.030500	1.694662
2.031000	1.694981
2.031500	1.694981
2.032000	1.693707
2.032500	1.693388
2.033000	1.692433
2.033500	1.692433
2.034000	1.692433
2.034500	1.693388
2.035000	1.694344
2.035500	1.694025
2.036000	1.692114
2.036500	1.690840
2.037000	1.690521
2.037500	1.691477
2.038000	1.692433
2.038500	1.693707
2.039000	1.694344
2.039500	1.694662
2.040000	1.692751
2.040500	1.692751
2.041000	1.692751
2.041500	1.693070
2.042000	1.694662
2.042500	1.695937
2.043000	1.694662
2.043500	1.694344
2.044000	1.693707
2.044500	1.693388
2.045000	1.693070
2.045500	1.692751
2.046000	1.693388
2.046500	1.694025
2.047000	1.693388
2.047500	1.691796
2.048000	1.689884
2.048500	1.690840
2.049000	1.691796
2.049500	1.692751
2.050000	1.693388
2.050500	1.694344
2.051000	1.694025
2.051500	1.693070
2.052000	1.691796
2.052500	1.693388
2.053000	1.693388
2.053500	1.694981
2.054000	1.695937
2.054500	1.694662
2.055000	1.693388
2.055500	1.693070
2.056000	1.692751
2.056500	1.691796
2.057000	1.693070
2.057500	1.694025
2.058000	1.693388
2.058500	1.693070
2.059000	1.691796
2.059500	1.690840
2.060000	1.691158
2.060500	1.692114
2.061000	1.693388
2.061500	1.694344
2.062000	1.694344
2.062500	1.694981
2.063000	1.693070
2.063500	1.692751
2.064000	1.693388
2.064500	1.694344
2.065000	1.695299
2.065500	1.695937
2.066000	1.695299
2.066500	1.694025
2.067000	1.693070
2.067500	1.693388
2.068000	1.693070
2.068500	1.692751
2.069000	1.694662
2.069500	1.694344
2.070000	1.693388
2.070500	1.691158
2.071000	1.691158
2.071500	1.690840
2.072000	1.692751
2.072500	1.693707
2.073000	1.694344
2.073500	1.694344
2.074000	1.694981
2.074500	1.693070
2.075000	1.692751
2.075500	1.693707
2.076000	1.694662
2.076500	1.695937
2.077000	1.695618
2.077500	1.694981
2.078000	1.693707
2.078500	1.692433
2.079000	1.693070
2.079500	1.693070
2.080000	1.694025
2.080500	1.694025
2.081000	1.694981
2.081500	1.693070
2.082000	1.690840
2.082500	1.691477
2.083000	1.691477
2.083500	1.693388
2.084000	1.694344
2.084500	1.694344
2.085000	1.694662
2.085500	1.694025
2.086000	1.693388
2.086500	1.694025
2.087000	1.694025
2.087500	1.695618
2.088000	1.696255
2.088500	1.695618
2.089000	1.694662
2.089500	1.694025
2.090000	1.694344
2.090500	1.692751
2.091000	1.693070
2.091500	1.693707
2.092000	1.694344
2.092500	1.694025
2.093000	1.692751
2.093500	1.692433
2.094000	1.690840
2.094500	1.692751
2.095000	1.694344
2.095500	1.693707
2.096000	1.694981
2.096500	1.695299
2.097000	1.694344
2.097500	1.694025
2.098000	1.694025
2.098500	1.694981
2.099000	1.695299
2.099500	1.695937
2.100000	1.695618
2.100500	1.694662
2.101000	1.693707
2.101500	1.694344
2.102000	1.694025
2.102500	1.694662
2.103000	1.695299
2.103500	1.694344
2.104000	1.694025
2.104500	1.692433
2.105000	1.690840
2.105500	1.692751
2.106000	1.693707
2.106500	1.694344
2.107000	1.695299
2.107500	1.694981
2.108000	1.694344
2.108500	1.694662
2.109000	1.694662
2.109500	1.694662
2.110000	1.695618
2.110500	1.697211
2.111000	1.696255
2.111500	1.695299
2.112000	1.693707
2.112500	1.693388
2.113000	1.693707
2.113500	1.693070
2.114000	1.694025
2.114500	1.694981
2.115000	1.694662
2.115500	1.692751
2.116000	1.691796
2.116500	1.692114
2.117000	1.693707
2.117500	1.693388
2.118000	1.694662
2.118500	1.694344
2.119000	1.694662
2.119500	1.694025
2.120000	1.693388
2.120500	1.693388
2.121000	1.694344
2.121500	1.695937
2.122000	1.696255
2.122500	1.695299
2.123000	1.694344
2.123500	1.692751
2.124000	1.693070
2.124500	1.692751
2.125000	1.692751
2.125500	1.693707
2.126000	1.694344
2.126500	1.692751
2.127000	1.691477
2.127500	1.691158
2.128000	1.691477
2.128500	1.693070
2.129000	1.694344
2.129500	1.694344
2.130000	1.694344
2.130500	1.694662
2.131000	1.693388
2.131500	1.692751
2.132000	1.694662
2.132500	1.694662
2.133000	1.696574
2.133500	1.696892
2.134000	1.694662
2.134500	1.693388
2.135000	1.692751
2.135500	1.693388
2.136000	1.693070
2.136500	1.693707
2.137000	1.694025
2.137500	1.694662
2.138000	1.693070
2.138500	1.692433
2.139000	1.691477
2.139500	1.692433
2.140000	1.693388
2.140500	1.693707
2.141000	1.695299
2.141500	1.694662
2.142000	1.694344
2.142500	1.693070
2.143000	1.693707
2.143500	1.694025
2.144000	1.695618
2.144500	1.696892
2.145000	1.696574
2.145500	1.695299
2.146000	1.693707
2.146500	1.693388
2.147000	1.693388
2.147500	1.692751
2.148000	1.693707
2.148500	1.694662
2.149000	1.694662
2.149500	1.692433
2.150000	1.690521
2.150500	1.691796
2.151000	1.692751
2.151500	1.693388
2.152000	1.694662
2.152500	1.694981
2.153000	1.694344
2.153500	1.693707
2.154000	1.693707
2.154500	1.694344
2.155000	1.695299
2.155500	1.696255
2.156000	1.696255
2.156500	1.695618
2.157000	1.694344
2.157500	1.694344
2.158000	1.693388
2.158500	1.692751
2.159000	1.694025
2.159500	1.694981
2.160000	1.694662
2.160500	1.693070
2.161000	1.693070
2.161500	1.691796
2.162000	1.692433
2.162500	1.693070
2.163000	1.694981
2.163500	1.694981
2.164000	1.695618
2.164500	1.694662
2.165000	1.694025
2.165500	1.694025
2.166000	1.694344
2.166500	1.695937
2.167000	1.696892
2.167500	1.695618
2.168000	1.694981
2.168500	1.693707
2.169000	1.693388
2.169500	1.692751
2.170000	1.694662
2.170500	1.694025
2.171000	1.694662
2.171500	1.694025
2.172000	1.693070
2.172500	1.692433
2.173000	1.692114
2.173500	1.693388
2.174000	1.694025
2.174500	1.694344
2.175000	1.695299
2.175500	1.694662
2.176000	1.694025
2.176500	1.694344
2.177000	1.693707
2.177500	1.694981
2.178000	1.695937
2.178500	1.696574
2.179000	1.695937
2.179500	1.694981
2.180000	1.694344
2.180500	1.692114
2.181000	1.693388
2.181500	1.693707
2.182000	1.694344
2.182500	1.694662
2.183000	1.693388
2.183500	1.693070
2.184000	1.691477
2.184500	1.691796
2.185000	1.692114
2.185500	1.694025
2.186000	1.694025
2.186500	1.694981
2.187000	1.694662
2.187500	1.694025
2.188000	1.693388
2.188500	1.694025
2.189000	1.694344
2.189500	1.695937
2.190000	1.696892
2.190500	1.695299
2.191000	1.693388
2.191500	1.693388
2.192000	1.693707
2.192500	1.693070
2.193000	1.693070
2.193500	1.693707
2.194000	1.693707
2.194500	1.693707
2.195000	1.692433
2.195500	1.691158
2.196000	1.691158
2.196500	1.693070
2.197000	1.694344
2.197500	1.694344
2.198000	1.694662
2.198500	1.694662
2.199000	1.693707
2.199500	1.693707
2.200000	1.693070
2.200500	1.694981
2.201000	1.696574
2.201500	1.696255
2.202000	1.695299
2.202500	1.693707
2.203000	1.692751
2.203500	1.692751
2.204000	1.692433
2.204500	1.693707
2.205000	1.694981
2.205500	1.694662
2.206000	1.693388
2.206500	1.692751
2.207000	1.691796
2.207500	1.692751
2.208000	1.693707
2.208500	1.694344
2.209000	1.694981
2.209500	1.695299
2.210000	1.694662
2.210500	1.694025
2.211000	1.693707
2.211500	1.694344
2.212000	1.695937
2.212500	1.696255
2.213000	1.696255
2.213500	1.695618
2.214000	1.694344
2.214500	1.694344
2.215000	1.693388
2.215500	1.693707
2.216000	1.694344
2.216500	1.694662
2.217000	1.694981
2.217500	1.693707
2.218000	1.692433
2.218500	1.691477
2.219000	1.692751
2.219500	1.694344
2.220000	1.694662
2.220500	1.694662
2.221000	1.695299
2.221500	1.695299
2.222000	1.694344
2.222500	1.693388
2.223000	1.694981
2.223500	1.696574
2.224000	1.697211
2.224500	1.696255
2.225000	1.694662
2.225500	1.694662
2.226000	1.692751
2.226500	1.694344
2.227000	1.692751
2.227500	1.694662
2.228000	1.694662
2.228500	1.694981
2.229000	1.692433
2.229500	1.691477
2.230000	1.691796
2.230500	1.693707
2.231000	1.694662
2.231500	1.695299
2.232000	1.694981
2.232500	1.694981
2.233000	1.694662
2.233500	1.693707
2.234000	1.694344
2.234500	1.694662
2.235000	1.696255
2.235500	1.697211
2.236000	1.695937
2.236500	1.694981
2.237000	1.693707
2.237500	1.692433
2.238000	1.693070
2.238500	1.693707
2.239000	1.694344
2.239500	1.694981
2.240000	1.692751
2.240500	1.692433
2.241000	1.691796
2.241500	1.691796
2.242000	1.694344
2.242500	1.694662
2.243000	1.694025
2.243500	1.694981
2.244000	1.694025
2.244500	1.693070
2.245000	1.694344
2.245500	1.694662
2.246000	1.696255
2.246500	1.696892
2.247000	1.694981
2.247500	1.694662
2.248000	1.692433
2.248500	1.693070
2.249000	1.692433
2.249500	1.693070
2.250000	1.693388
2.250500	1.694344
2.251000	1.693707
2.251500	1.692114
2.252000	1.690840
2.252500	1.691158
2.253000	1.693388
2.253500	1.693707
2.254000	1.694662
2.254500	1.694981
2.255000	1.694662
2.255500	1.693707
2.256000	1.693070
2.256500	1.693707
2.257000	1.694981
2.257500	1.695937
2.258000	1.696255
2.258500	1.694981
2.259000	1.693707
2.259500	1.693388
2.260000	1.692751
2.260500	1.693070
2.261000	1.692433
2.261500	1.694662
2.262000	1.693388
2.262500	1.693388
2.263000	1.691796
2.263500	1.690521
2.264000	1.691477
2.264500	1.693070
2.265000	1.693707
2.265500	1.693388
2.266000	1.694662
2.266500	1.694025
2.267000	1.693388
2.267500	1.693070
2.268000	1.693388
2.268500	1.694344
2.269000	1.694981
2.269500	1.695299
2.270000	1.694344
2.270500	1.693707
2.271000	1.693070
2.271500	1.692433
2.272000	1.692433
2.272500	1.693707
2.273000	1.694981
2.273500	1.694025
2.274000	1.692751
2.274500	1.690840
2.275000	1.691158
2.275500	1.692433
2.276000	1.692751
2.276500	1.693070
2.277000	1.693707
2.277500	1.694025
2.278000	1.693707
2.278500	1.693388
2.279000	1.693388
2.279500	1.693707
2.280000	1.695937
2.280500	1.695618
2.281000	1.695618
2.281500	1.694344
2.282000	1.693388
2.282500	1.692433
2.283000	1.693070
2.283500	1.693070
2.284000	1.693388
2.284500	1.693707
2.285000	1.694025
2.285500	1.693070
2.286000	1.692114
2.286500	1.691477
2.287000	1.692751
2.287500	1.693707
2.288000	1.694344
2.288500	1.694344
2.289000	1.694981
2.289500	1.694981
2.290000	1.694025
2.290500	1.693070
2.291000	1.694025
2.291500	1.694981
2.292000	1.695299
2.292500	1.695937
2.293000	1.694662
2.293500	1.693388
2.294000	1.693388
2.294500	1.692433
2.295000	1.693070
2.295500	1.694025
2.296000	1.694662
2.296500	1.694344
2.297000	1.692751
2.297500	1.691796
2.298000	1.692114
2.298500	1.692751
2.299000	1.693388
2.299500	1.694025
2.300000	1.694981
2.300500	1.694981
2.301000	1.694662
2.301500	1.693707
2.302000	1.693707
2.302500	1.693707
2.303000	1.694662
2.303500	1.696255
2.304000	1.696892
2.304500	1.694981
2.305000	1.694344
2.305500	1.694025
2.306000	1.693070
2.306500	1.693070
2.307000	1.693707
2.307500	1.694662
2.308000	1.694662
2.308500	1.693388
2.309000	1.693070
2.309500	1.691477
2.310000	1.692751
2.310500	1.693070
2.311000	1.693707
2.311500	1.695299
2.312000	1.694662
2.312500	1.694981
2.313000	1.694025
2.313500	1.693388
2.314000	1.694025
2.314500	1.694981
2.315000	1.696255
2.315500	1.696255
2.316000	1.694981
2.316500	1.694662
2.317000	1.693070
2.317500	1.692433
2.318000	1.693070
2.318500	1.694025
2.319000	1.694344
2.319500	1.693707
2.320000	1.693388
2.320500	1.691796
2.321000	1.692114
2.321500	1.692433
2.322000	1.693388
2.322500	1.694344
2.323000	1.694981
2.323500	1.694662
2.324000	1.694662
2.324500	1.694025
2.325000	1.693707
2.325500	1.694025
2.326000	1.696574
2.326500	1.695937
2.327000	1.695618
2.327500	1.694981
2.328000	1.694025
2.328500	1.694025
2.329000	1.693707
2.329500	1.692114
2.330000	1.693388
2.330500	1.694344
2.331000	1.694662
2.331500	1.694344
2.332000	1.692433
2.332500	1.691796
2.333000	1.691796
2.333500	1.692751
2.334000	1.694025
2.334500	1.694344
2.335000	1.695299
2.335500	1.694662
2.336000	1.694025
2.336500	1.694025
2.337000	1.693707
2.337500	1.694981
2.338000	1.695299
2.338500	1.696574
2.339000	1.694662
2.339500	1.694662
2.340000	1.693707
2.340500	1.693070
2.341000	1.692114
2.341500	1.693070
2.342000	1.694344
2.342500	1.694662
2.343000	1.694025
2.343500	1.692114
2.344000	1.691477
2.344500	1.691477
2.345000	1.692433
2.345500	1.694025
2.346000	1.694025
2.346500	1.694662
2.347000	1.694025
2.347500	1.693707
2.348000	1.693707
2.348500	1.693707
2.349000	1.693707
2.349500	1.694344
2.350000	1.696574
2.350500	1.695299
2.351000	1.693707
2.351500	1.694344
2.352000	1.693388
2.352500	1.691796
2.353000	1.693070
2.353500	1.693707
2.354000	1.694025
2.354500	1.694344
2.355000	1.692433
2.355500	1.692114
2.356000	1.691477
2.356500	1.692114
2.357000	1.693707
2.357500	1.694025
2.358000	1.694662
2.358500	1.694344
2.359000	1.693707
2.359500	1.692433
2.360000	1.692114
2.360500	1.693388
2.361000	1.694662
2.361500	1.695618
2.362000	1.694662
2.362500	1.694025
2.363000	1.693388
2.363500	1.692751
2.364000	1.692751
2.364500	1.692751
2.365000	1.693707
2.365500	1.694981
2.366000	1.693707
2.366500	1.693070
2.367000	1.691796
2.367500	1.691158
2.368000	1.691796
2.368500	1.693388
2.369000	1.693707
2.369500	1.694344
2.370000	1.694344
2.370500	1.694662
2.371000	1.693388
2.371500	1.693707
2.372000	1.693707
2.372500	1.694981
2.373000	1.695618
2.373500	1.694662
2.374000	1.693707
2.374500	1.692751
2.375000	1.693070
2.375500	1.692433
2.376000	1.693070
2.376500	1.692433
2.377000	1.694344
2.377500	1.694025
2.378000	1.691796
2.378500	1.691477
2.379000	1.690840
2.379500	1.691796
2.380000	1.693388
2.380500	1.693707
2.381000	1.694344
2.381500	1.694344
2.382000	1.694662
2.382500	1.693070
2.383000	1.693070
2.383500	1.693388
2.384000	1.694981
2.384500	1.695299
2.385000	1.695618
2.385500	1.694344
2.386000	1.693388
2.386500	1.692433
2.387000	1.692114
2.387500	1.692433
2.388000	1.693070
2.388500	1.693388
2.389000	1.693707
2.389500	1.691796
2.390000	1.691477
2.390500	1.691158
2.391000	1.692751
2.391500	1.693070
2.392000	1.693707
2.392500	1.694662
2.393000	1.694025
2.393500	1.693388
2.394000	1.692433
2.394500	1.692114
2.395000	1.694662
2.395500	1.694981
2.396000	1.696255
2.396500	1.694344
2.397000	1.693707
2.397500	1.693388
2.398000	1.691796
2.398500	1.692114
2.399000	1.692433
2.399500	1.693707
2.400000	1.694344
2.400500	1.693070
2.401000	1.691796
2.401500	1.689884
2.402000	1.690521
2.402500	1.692433
2.403000	1.692751
2.403500	1.692751
2.404000	1.694025
2.404500	1.693707
2.405000	1.693388
2.405500	1.691796
2.406000	1.691477
2.406500	1.693707
2.407000	1.694344
2.407500	1.694344
2.408000	1.695299
2.408500	1.693070
2.409000	1.692433
2.409500	1.691796
2.410000	1.692114
2.410500	1.692751
2.411000	1.693388
2.411500	1.693707
2.412000	1.692433
2.412500	1.692114
2.413000	1.690203
2.413500	1.690203
2.414000	1.690521
2.414500	1.692433
2.415000	1.693070
2.415500	1.694344
2.416000	1.694344
2.416500	1.693707
2.417000	1.694025
2.417500	1.692433
2.418000	1.692751
2.418500	1.694981
2.419000	1.695299
2.419500	1.694662
2.420000	1.693070
2.420500	1.693707
2.421000	1.692114
2.421500	1.691796
2.422000	1.692751
2.422500	1.693070
2.423000	1.693388
2.423500	1.692751
2.424000	1.692114
2.424500	1.689884
2.425000	1.690203
2.425500	1.692433
2.426000	1.692114
2.426500	1.694025
2.427000	1.694025
2.427500	1.694344
2.428000	1.693070
2.428500	1.692751
2.429000	1.692433
2.429500	1.693707
2.430000	1.694662
2.430500	1.695299
2.431000	1.694662
2.431500	1.693070
2.432000	1.692751
2.432500	1.691477
2.433000	1.692751
2.433500	1.692114
2.434000	1.693070
2.434500	1.693388
2.435000	1.692751
2.435500	1.690840
2.436000	1.689884
2.436500	1.690840
2.437000	1.691796
2.437500	1.692114
2.438000	1.692751
2.438500	1.693070
2.439000	1.693070
2.439500	1.692751
2.440000	1.692433
2.440500	1.692433
2.441000	1.694344
2.441500	1.695299
2.442000	1.695937
2.442500	1.693707
2.443000	1.692751
2.443500	1.692433
2.444000	1.692433
2.444500	1.691796
2.445000	1.692751
2.445500	1.692751
2.446000	1.693388
2.446500	1.691796
2.447000	1.690840
2.447500	1.689566
2.448000	1.690840
2.448500	1.692114
2.449000	1.692751
2.449500	1.692751
2.450000	1.693388
2.450500	1.693707
2.451000	1.692433
2.451500	1.692114
2.452000	1.691477
2.452500	1.693070
2.453000	1.694981
2.453500	1.694981
2.454000	1.693388
2.454500	1.693070
2.455000	1.691477
2.455500	1.691158
2.456000	1.691796
2.456500	1.691158
2.457000	1.693070
2.457500	1.692751
2.458000	1.692433
2.458500	1.690521
2.459000	1.688610
2.459500	1.689884
2.460000	1.691796
2.460500	1.691796
2.461000	1.692751
2.461500	1.693070
2.462000	1.692751
2.462500	1.691477
2.463000	1.691477
2.463500	1.691158
2.464000	1.692751
2.464500	1.694025
2.465000	1.694662
2.465500	1.694344
2.466000	1.692114
2.466500	1.692751
2.467000	1.691158
2.467500	1.691158
2.468000	1.691796
2.468500	1.692751
2.469000	1.692114
2.469500	1.692433
2.470000	1.691158
2.470500	1.689247
2.471000	1.689247
2.471500	1.691158
2.472000	1.692114
2.472500	1.693388
2.473000	1.693070
2.473500	1.692433
2.474000	1.693070
2.474500	1.692114
2.475000	1.692114
2.475500	1.692433
2.476000	1.694981
2.476500	1.694662
2.477000	1.694344
2.477500	1.692751
2.478000	1.692114
2.478500	1.691796
2.479000	1.691796
2.479500	1.692114
2.480000	1.693070
2.480500	1.693707
2.481000	1.692433
2.481500	1.690203
2.482000	1.689566
2.482500	1.691158
2.483000	1.692433
2.483500	1.693388
2.484000	1.693388
2.484500	1.693707
2.485000	1.692751
2.485500	1.692433
2.486000	1.692433
2.486500	1.693070
2.487000	1.694344
2.487500	1.694981
2.488000	1.695618
2.488500	1.694025
2.489000	1.693388
2.489500	1.692751
2.490000	1.692433
2.490500	1.693070
2.491000	1.692751
2.491500	1.693707
2.492000	1.693388
2.492500	1.691796
2.493000	1.691796
2.493500	1.690840
2.494000	1.691477
2.494500	1.691796
2.495000	1.693070
2.495500	1.694025
2.496000	1.693707
2.496500	1.693707
2.497000	1.693388
2.497500	1.693070
2.498000	1.693070
2.498500	1.695299
2.499000	1.695937
2.499500	1.695299
2.500000	1.694981
2.500500	1.693070
2.501000	1.692751
2.501500	1.692751
2.502000	1.692114
2.502500	1.694025
2.503000	1.694344
2.503500	1.693388
2.504000	1.693070
2.504500	1.690840
2.505000	1.690521
2.505500	1.691796
2.506000	1.692114
2.506500	1.692751
2.507000	1.693388
2.507500	1.693707
2.508000	1.693388
2.508500	1.692751
2.509000	1.692433
2.509500	1.692751
2.510000	1.694344
2.510500	1.696255
2.511000	1.695299
2.511500	1.694344
2.512000	1.693388
2.512500	1.692751
2.513000	1.692114
2.513500	1.692751
2.514000	1.693070
2.514500	1.693707
2.515000	1.693388
2.515500	1.693070
2.516000	1.691158
2.516500	1.691158
2.517000	1.690840
2.517500	1.692114
2.518000	1.693070
2.518500	1.693388
2.519000	1.694025
2.519500	1.694662
2.520000	1.693070
2.520500	1.693388
2.521000	1.692751
2.521500	1.694025
2.522000	1.695299
2.522500	1.695937
2.523000	1.694662
2.523500	1.693388
2.524000	1.692433
2.524500	1.692433
2.525000	1.691477
2.525500	1.692751
2.526000	1.694981
2.526500	1.693388
2.527000	1.692114
2.527500	1.691796
2.528000	1.690840
2.528500	1.690521
2.529000	1.691796
2.529500	1.693707
2.530000	1.692751
2.530500	1.693388
2.531000	1.693388
2.531500	1.693070
2.532000	1.691796
2.532500	1.692433
2.533000	1.693388
2.533500	1.695299
2.534000	1.694662
2.534500	1.693707
2.535000	1.693070
2.535500	1.692433
2.536000	1.691796
2.536500	1.691796
2.537000	1.691477
2.537500	1.692433
2.538000	1.692751
2.538500	1.692433
2.539000	1.690521
2.539500	1.689566
2.540000	1.690521
2.540500	1.691796
2.541000	1.692751
2.541500	1.692751
2.542000	1.693388
2.542500	1.693070
2.543000	1.692433
2.543500	1.692433
2.544000	1.692433
2.544500	1.693388
2.545000	1.694662
2.545500	1.694981
2.546000	1.694981
2.546500	1.692433
2.547000	1.691796
2.547500	1.691796
2.548000	1.691477
2.548500	1.691796
2.549000	1.692751
2.549500	1.692751
2.550000	1.693070
2.550500	1.691158
2.551000	1.689884
2.551500	1.690203
2.552000	1.691477
2.552500	1.692114
2.553000	1.693388
2.553500	1.693388
2.554000	1.693070
2.554500	1.693388
2.555000	1.692751
2.555500	1.693388
2.556000	1.693388
2.556500	1.694344
2.557000	1.694662
2.557500	1.695618
2.558000	1.693388
2.558500	1.693070
2.559000	1.692433
2.559500	1.692433
2.560000	1.692433
2.560500	1.692433
2.561000	1.693070
2.561500	1.692751
2.562000	1.692433
2.562500	1.691158
2.563000	1.690203
2.563500	1.691158
2.564000	1.692751
2.564500	1.692751
2.565000	1.693707
2.565500	1.694662
2.566000	1.692433
2.566500	1.692751
2.567000	1.692114
2.567500	1.693388
2.568000	1.693707
2.568500	1.695618
2.569000	1.694662
2.569500	1.694025
2.570000	1.693388
2.570500	1.691477
2.571000	1.692751
2.571500	1.692114
2.572000	1.691796
2.572500	1.693707
2.573000	1.693388
2.573500	1.692114
2.574000	1.691477
2.574500	1.689884
2.575000	1.691477
2.575500	1.692751
2.576000	1.693707
2.576500	1.694025
2.577000	1.693707
2.577500	1.692751
2.578000	1.692751
2.578500	1.691796
2.579000	1.692114
2.579500	1.694025
2.580000	1.694981
2.580500	1.694981
2.581000	1.694344
2.581500	1.692433
2.582000	1.692433
2.582500	1.691796
2.583000	1.692114
2.583500	1.693070
2.584000	1.693707
2.584500	1.692751
2.585000	1.692114
2.585500	1.690521
2.586000	1.689247
2.586500	1.691477
2.587000	1.692433
2.587500	1.693388
2.588000	1.693388
2.588500	1.694344
2.589000	1.693707
2.589500	1.692751
2.590000	1.693070
2.590500	1.693707
2.591000	1.694344
2.591500	1.694981
2.592000	1.695299
2.592500	1.694662
2.593000	1.692751
2.593500	1.692114
2.594000	1.690840
2.594500	1.692114
2.595000	1.693070
2.595500	1.693070
2.596000	1.693070
2.596500	1.691796
2.597000	1.691158
2.597500	1.689884
2.598000	1.690203
2.598500	1.692114
2.599000	1.692751
2.599500	1.693388
2.600000	1.693388
2.600500	1.692751
2.601000	1.692433
2.601500	1.692751
2.602000	1.692114
2.602500	1.694344
2.603000	1.695299
2.603500	1.694981
2.604000	1.694025
2.604500	1.692433
2.605000	1.691796
2.605500	1.692114
2.606000	1.694662
2.606500	1.691477
2.607000	1.692433
2.607500	1.693070
2.608000	1.691477
2.608500	1.689884
2.609000	1.690203
2.609500	1.690203
2.610000	1.692114
2.610500	1.692433
2.611000	1.693707
2.611500	1.693070
2.612000	1.693388
2.612500	1.692114
2.613000	1.691796
2.613500	1.692114
2.614000	1.693388
2.614500	1.694662
2.615000	1.694662
2.615500	1.693707
2.616000	1.692433
2.616500	1.691796
2.617000	1.690203
2.617500	1.691158
2.618000	1.692433
2.618500	1.693388
2.619000	1.692751
2.619500	1.691158
2.620000	1.690203
2.620500	1.690521
2.621000	1.690521
2.621500	1.691796
2.622000	1.692114
2.622500	1.693070
2.623000	1.693070
2.623500	1.693388
2.624000	1.692114
2.624500	1.691477
2.625000	1.692114
2.625500	1.694025
2.626000	1.698485
2.626500	1.694662
2.627000	1.693707
2.627500	1.692751
2.628000	1.691477
2.628500	1.691477
2.629000	1.691796
2.629500	1.692433
2.630000	1.692433
2.630500	1.692751
2.631000	1.691796
2.631500	1.691158
2.632000	1.689884
2.632500	1.691477
2.633000	1.692433
2.633500	1.692751
2.634000	1.693070
2.634500	1.693707
2.635000	1.693707
2.635500	1.692751
2.636000	1.692751
2.636500	1.692751
2.637000	1.694344
2.637500	1.695299
2.638000	1.695618
2.638500	1.693707
2.639000	1.692114
2.639500	1.692433
2.640000	1.692114
2.640500	1.692751
2.641000	1.693388
2.641500	1.693070
2.642000	1.693707
2.642500	1.692114
2.643000	1.690521
2.643500	1.690203
2.644000	1.691477
2.644500	1.692751
2.645000	1.693070
2.645500	1.694662
2.646000	1.693707
2.646500	1.693388
2.647000	1.693070
2.647500	1.693070
2.648000	1.694344
2.648500	1.695299
2.649000	1.695299
2.649500	1.694662
2.650000	1.693388
2.650500	1.692751
2.651000	1.692433
2.651500	1.691796
2.652000	1.692751
2.652500	1.693388
2.653000	1.694025
2.653500	1.693070
2.654000	1.691158
2.654500	1.690203
2.655000	1.690203
2.655500	1.691158
2.656000	1.693388
2.656500	1.694025
2.657000	1.693707
2.657500	1.694344
2.658000	1.693388
2.658500	1.693388
2.659000	1.692751
2.659500	1.694981
2.660000	1.694981
2.660500	1.694981
2.661000	1.694662
2.661500	1.692751
2.662000	1.692114
2.662500	1.691796
2.663000	1.692114
2.663500	1.692751
2.664000	1.693070
2.664500	1.692751
2.665000	1.691477
2.665500	1.691158
2.666000	1.690521
2.666500	1.690203
2.667000	1.692114
2.667500	1.693070
2.668000	1.693707
2.668500	1.693707
2.669000	1.693707
2.669500	1.692114
2.670000	1.692433
2.670500	1.692433
2.671000	1.693707
2.671500	1.694662
2.672000	1.694981
2.672500	1.693388
2.673000	1.692751
2.673500	1.692114
2.674000	1.691477
2.674500	1.691477
2.675000	1.692433
2.675500	1.692751
2.676000	1.693388
2.676500	1.691796
2.677000	1.690521
2.677500	1.689566
2.678000	1.691477
2.678500	1.692114
2.679000	1.692433
2.679500	1.694025
2.680000	1.693388
2.680500	1.693070
2.681000	1.692433
2.681500	1.692433
2.682000	1.693388
2.682500	1.694344
2.683000	1.694981
2.683500	1.694344
2.684000	1.692751
2.684500	1.691796
2.685000	1.693070
2.685500	1.692114
2.686000	1.693070
2.686500	1.693388
2.687000	1.693707
2.687500	1.693070
2.688000	1.691796
2.688500	1.689884
2.689000	1.690203
2.689500	1.692114
2.690000	1.692433
2.690500	1.692433
2.691000	1.693707
2.691500	1.694344
2.692000	1.692751
2.692500	1.692751
2.693000	1.692433
2.693500	1.693388
2.694000	1.695299
2.694500	1.695299
2.695000	1.694981
2.695500	1.694662
2.696000	1.692114
2.696500	1.691796
2.697000	1.692114
2.697500	1.693070
2.698000	1.692751
2.698500	1.693070
2.699000	1.693070
2.699500	1.691477
2.700000	1.689884
2.700500	1.689884
2.701000	1.691158
2.701500	1.692751
2.702000	1.693707
2.702500	1.694025
2.703000	1.693388
2.703500	1.692114
2.704000	1.693070
2.704500	1.692751
2.705000	1.694025
2.705500	1.694662
2.706000	1.695937
2.706500	1.694662
2.707000	1.694025
2.707500	1.693070
2.708000	1.692751
2.708500	1.691796
2.709000	1.691477
2.709500	1.692751
2.710000	1.693707
2.710500	1.693070
2.711000	1.692433
2.711500	1.691158
2.712000	1.690521
2.712500	1.691158
2.713000	1.692751
2.713500	1.693707
2.714000	1.694344
2.714500	1.694344
2.715000	1.693707
2.715500	1.693388
2.716000	1.693070
2.716500	1.693707
2.717000	1.694662
2.717500	1.695299
2.718000	1.695937
2.718500	1.694981
2.719000	1.693388
2.719500	1.693388
2.720000	1.692114
2.720500	1.692433
2.721000	1.693388
2.721500	1.693707
2.722000	1.693707
2.722500	1.693070
2.723000	1.691796
2.723500	1.691477
2.724000	1.691796
2.724500	1.692751
2.725000	1.692433
2.725500	1.694025
2.726000	1.694662
2.726500	1.694025
2.727000	1.693707
2.727500	1.693070
2.728000	1.693070
2.728500	1.694344
2.729000	1.695618
2.729500	1.695937
2.730000	1.694981
2.730500	1.693707
2.731000	1.693707
2.731500	1.692114
2.732000	1.692751
2.732500	1.693707
2.733000	1.694025
2.733500	1.694344
2.734000	1.692433
2.734500	1.692114
2.735000	1.690840
2.735500	1.692433
2.736000	1.693070
2.736500	1.693070
2.737000	1.694025
2.737500	1.694981
2.738000	1.694662
2.738500	1.693388
2.739000	1.694025
2.739500	1.693707
2.740000	1.694662
2.740500	1.695618
2.741000	1.696574
2.741500	1.694662
2.742000	1.693388
2.742500	1.693707
2.743000	1.692751
2.743500	1.693070
2.744000	1.692114
2.744500	1.694025
2.745000	1.694344
2.745500	1.694025
2.746000	1.693388
2.746500	1.691477
2.747000	1.691477
2.747500	1.693388
2.748000	1.693707
2.748500	1.695299
2.749000	1.694981
2.749500	1.694662
2.750000	1.694025
2.750500	1.693707
2.751000	1.693388
2.751500	1.694981
2.752000	1.695937
2.752500	1.696255
2.753000	1.695299
2.753500	1.694344
2.754000	1.694025
2.754500	1.693388
2.755000	1.693388
2.755500	1.693388
2.756000	1.694344
2.756500	1.694662
2.757000	1.694344
2.757500	1.693388
2.758000	1.691796
2.758500	1.692114
2.759000	1.693070
2.759500	1.694662
2.760000	1.694662
2.760500	1.694662
2.761000	1.694662
2.761500	1.694344
2.762000	1.694025
2.762500	1.693388
2.763000	1.695299
2.763500	1.695937
2.764000	1.696255
2.764500	1.695937
2.765000	1.694981
2.765500	1.694025
2.766000	1.693707
2.766500	1.693388
2.767000	1.694025
2.767500	1.694344
2.768000	1.694981
2.768500	1.694025
2.769000	1.692114
2.769500	1.691477
2.770000	1.691477
2.770500	1.693707
2.771000	1.694344
2.771500	1.694662
2.772000	1.694981
2.772500	1.694344
2.773000	1.694981
2.773500	1.694662
2.774000	1.694025
2.774500	1.694981
2.775000	1.696574
2.775500	1.696892
2.776000	1.695618
2.776500	1.694344
2.777000	1.693707
2.777500	1.692114
2.778000	1.693707
2.778500	1.693707
2.779000	1.694662
2.779500	1.694981
2.780000	1.694344
2.780500	1.692433
2.781000	1.691158
2.781500	1.692114
2.782000	1.692433
2.782500	1.694025
2.783000	1.693707
2.783500	1.694025
2.784000	1.694662
2.784500	1.693707
2.785000	1.693707
2.785500	1.694025
2.786000	1.694662
2.786500	1.695618
2.787000	1.696574
2.787500	1.695618
2.788000	1.694344
2.788500	1.694025
2.789000	1.693388
2.789500	1.693070
2.790000	1.693070
2.790500	1.693388
2.791000	1.694344
2.791500	1.694344
2.792000	1.692433
2.792500	1.691158
2.793000	1.691158
2.793500	1.692751
2.794000	1.692751
2.794500	1.693070
2.795000	1.694344
2.795500	1.693707
2.796000	1.694025
2.796500	1.693070
2.797000	1.694025
2.797500	1.693707
2.798000	1.695299
2.798500	1.696574
2.799000	1.694662
2.799500	1.693707
2.800000	1.692433
2.800500	1.692751
2.801000	1.692433
2.801500	1.692751
2.802000	1.692433
2.802500	1.693070
2.803000	1.692751
2.803500	1.692433
2.804000	1.690521
2.804500	1.690521
2.805000	1.692114
2.805500	1.692751
2.806000	1.693070
2.806500	1.694025
2.807000	1.694025
2.807500	1.693707
2.808000	1.692751
2.808500	1.692433
2.809000	1.693070
2.809500	1.694662
2.810000	1.694981
2.810500	1.694662
2.811000	1.693707
2.811500	1.692433
2.812000	1.692751
2.812500	1.691796
2.813000	1.692114
2.813500	1.693070
2.814000	1.693388
2.814500	1.693707
2.815000	1.691477
2.815500	1.691477
2.816000	1.690521
2.816500	1.691477
2.817000	1.693070
2.817500	1.693388
2.818000	1.693707
2.818500	1.693707
2.819000	1.693388
2.819500	1.693388
2.820000	1.692433
2.820500	1.693070
2.821000	1.694344
2.821500	1.695618
2.822000	1.694981
2.822500	1.693388
2.823000	1.693070
2.823500	1.692114
2.824000	1.692114
2.824500	1.691477
2.825000	1.693070
2.825500	1.693707
2.826000	1.640192
2.826500	1.692433
2.827000	1.691158
2.827500	1.691158
2.828000	1.690840
2.828500	1.691796
2.829000	1.692751
2.829500	1.693388
2.830000	1.694025
2.830500	1.693707
2.831000	1.692114
2.831500	1.692433
2.832000	1.692751
2.832500	1.694344
2.833000	1.695299
2.833500	1.694981
2.834000	1.694662
2.834500	1.693388
2.835000	1.693070
2.835500	1.692114
2.836000	1.692751
2.836500	1.692114
2.837000	1.693388
2.837500	1.693388
2.838000	1.693070
2.838500	1.691796
2.839000	1.690203
2.839500	1.691158
2.840000	1.692433
2.840500	1.692751
2.841000	1.694662
2.841500	1.693388
2.842000	1.693388
2.842500	1.693388
2.843000	1.692433
2.843500	1.693388
2.844000	1.693707
2.844500	1.695937
2.845000	1.694981
2.845500	1.694662
2.846000	1.693388
2.846500	1.693707
2.847000	1.692751
2.847500	1.692751
2.848000	1.692751
2.848500	1.694025
2.849000	1.694662
2.849500	1.693707
2.850000	1.691796
2.850500	1.691158
2.851000	1.691477
2.851500	1.692433
2.852000	1.693707
2.852500	1.694344
2.853000	1.694025
2.853500	1.694025
2.854000	1.693707
2.854500	1.692751
2.855000	1.693388
2.855500	1.694025
2.856000	1.695937
2.856500	1.695618
2.857000	1.694662
2.857500	1.693707
2.858000	1.693070
2.858500	1.692114
2.859000	1.692433
2.859500	1.692433
2.860000	1.693388
2.860500	1.693707
2.861000	1.692751
2.861500	1.692433
2.862000	1.690521
2.862500	1.690840
2.863000	1.692114
2.863500	1.692433
2.864000	1.694344
2.864500	1.694025
2.865000	1.694981
2.865500	1.693388
2.866000	1.693707
2.866500	1.693707
2.867000	1.694025
2.867500	1.695299
2.868000	1.695299
2.868500	1.694662
2.869000	1.693388
2.869500	1.692751
2.870000	1.692433
2.870500	1.692433
2.871000	1.692751
2.871500	1.694344
2.872000	1.694025
2.872500	1.694025
2.873000	1.692433
2.873500	1.691477
2.874000	1.691477
2.874500	1.692751
2.875000	1.693707
2.875500	1.693707
2.876000	1.694344
2.876500	1.693070
2.877000	1.694025
2.877500	1.693070
2.878000	1.692433
2.878500	1.694025
2.879000	1.694662
2.879500	1.695299
2.880000	1.694662
2.880500	1.693707
2.881000	1.693388
2.881500	1.692433
2.882000	1.692433
2.882500	1.693070
2.883000	1.692751
2.883500	1.693707
2.884000	1.693070
2.884500	1.691477
2.885000	1.690521
2.885500	1.691158
2.886000	1.692751
2.886500	1.692751
2.887000	1.692751
2.887500	1.694344
2.888000	1.693707
2.888500	1.693070
2.889000	1.692433
2.889500	1.693388
2.890000	1.694662
2.890500	1.696255
2.891000	1.695937
2.891500	1.694662
2.892000	1.694025
2.892500	1.693070
2.893000	1.692751
2.893500	1.692114
2.894000	1.693388
2.894500	1.693707
2.895000	1.693707
2.895500	1.693388
2.896000	1.692114
2.896500	1.690521
2.897000	1.691477
2.897500	1.693388
2.898000	1.693070
2.898500	1.694344
2.899000	1.694025
2.899500	1.694662
2.900000	1.693707
2.900500	1.693707
2.901000	1.693070
2.901500	1.694344
2.902000	1.695937
2.902500	1.695618
2.903000	1.694662
2.903500	1.693707
2.904000	1.693070
2.904500	1.692433
2.905000	1.692751
2.905500	1.692751
2.906000	1.693388
2.906500	1.693388
2.907000	1.693070
2.907500	1.690521
2.908000	1.691158
2.908500	1.690203
2.909000	1.692751
2.909500	1.693707
2.910000	1.694025
2.910500	1.694981
2.911000	1.694025
2.911500	1.694025
2.912000	1.692114
2.912500	1.693070
2.913000	1.694662
2.913500	1.695937
2.914000	1.696255
2.914500	1.694981
2.915000	1.693388
2.915500	1.694344
2.916000	1.692751
2.916500	1.693388
2.917000	1.694344
2.917500	1.694344
2.918000	1.694344
2.918500	1.694025
2.919000	1.691796
2.919500	1.690203
2.920000	1.691477
2.920500	1.693070
2.921000	1.693707
2.921500	1.694662
2.922000	1.694025
2.922500	1.694025
2.923000	1.693707
2.923500	1.692751
2.924000	1.694344
2.924500	1.695299
2.925000	1.696892
2.925500	1.695937
2.926000	1.695299
2.926500	1.694662
2.927000	1.692751
2.927500	1.692433
2.928000	1.692114
2.928500	1.693070
2.929000	1.694344
2.929500	1.694025
2.930000	1.693707
2.930500	1.692751
2.931000	1.691796
2.931500	1.691796
2.932000	1.693388
2.932500	1.694344
2.933000	1.693707
2.933500	1.694344
2.934000	1.694981
2.934500	1.694344
2.935000	1.693388
2.935500	1.694025
2.936000	1.694662
2.936500	1.696574
2.937000	1.695937
2.937500	1.695937
2.938000	1.693707
2.938500	1.694344
2.939000	1.693388
2.939500	1.692751
2.940000	1.694025
2.940500	1.694662
2.941000	1.694662
2.941500	1.693707
2.942000	1.691477
2.942500	1.692114
2.943000	1.692114
2.943500	1.693070
2.944000	1.694344
2.944500	1.694662
2.945000	1.695618
2.945500	1.694981
2.946000	1.693707
2.946500	1.693388
2.947000	1.694662
2.947500	1.694981
2.948000	1.696892
2.948500	1.696255
2.949000	1.694981
2.949500	1.694025
2.950000	1.693707
2.950500	1.694025
2.951000	1.693388
2.951500	1.694025
2.952000	1.694981
2.952500	1.694662
2.953000	1.694025
2.953500	1.691158
2.954000	1.692114
2.954500	1.693070
2.955000	1.693707
2.955500	1.694025
2.956000	1.694344
2.956500	1.694981
2.957000	1.694344
2.957500	1.694025
2.958000	1.694025
2.958500	1.694344
2.959000	1.695618
2.959500	1.697211
2.960000	1.696255
2.960500	1.695618
2.961000	1.694662
2.961500	1.693070
2.962000	1.693388
2.962500	1.692751
2.963000	1.694344
2.963500	1.695299
2.964000	1.694981
2.964500	1.693707
2.965000	1.692114
2.965500	1.691796
2.966000	1.692433
2.966500	1.694025
2.967000	1.694662
2.967500	1.694662
2.968000	1.695618
2.968500	1.694344
2.969000	1.694344
2.969500	1.693388
2.970000	1.694662
2.970500	1.694662
2.971000	1.695937
2.971500	1.696574
2.972000	1.694981
2.972500	1.694344
2.973000	1.694662
2.973500	1.693070
2.974000	1.692751
2.974500	1.693388
2.975000	1.694662
2.975500	1.694025
2.976000	1.693388
2.976500	1.692433
2.977000	1.691158
2.977500	1.691477
2.978000	1.694025
2.978500	1.694025
2.979000	1.694344
2.979500	1.694662
2.980000	1.694025
2.980500	1.694344
2.981000	1.693070
2.981500	1.694344
2.982000	1.694981
2.982500	1.696574
2.983000	1.695937
2.983500	1.694981
2.984000	1.694025
2.984500	1.693388
2.985000	1.692433
2.985500	1.693707
2.986000	1.694344
2.986500	1.694344
2.987000	1.694344
2.987500	1.694662
2.988000	1.692114
2.988500	1.692114
2.989000	1.692433
2.989500	1.693388
2.990000	1.694344
2.990500	1.694662
2.991000	1.694344
2.991500	1.694025
2.992000	1.694025
2.992500	1.693707
2.993000	1.693707
2.993500	1.694662
2.994000	1.696255
2.994500	1.695618
2.995000	1.695299
2.995500	1.694344
2.996000	1.693388
2.996500	1.692433
2.997000	1.692751
2.997500	1.693388
2.998000	1.694344
2.998500	1.694344
2.999000	1.694025
2.999500	1.692114
3.000000	1.691796
3.000500	1.691477
3.001000	1.692751
3.001500	1.693388
3.002000	1.694344
3.002500	1.694662
3.003000	1.694344
3.003500	1.693388
3.004000	1.692433
3.004500	1.693070
3.005000	1.694662
3.005500	1.695937
3.006000	1.695618
3.006500	1.694344
3.007000	1.694344
3.007500	1.693070
3.008000	1.692433
3.008500	1.692433
3.009000	1.693070
3.009500	1.693070
3.010000	1.694025
3.010500	1.693070
3.011000	1.691158
3.011500	1.690521
3.012000	1.691158
3.012500	1.692433
3.013000	1.693070
3.013500	1.693707
3.014000	1.694344
3.014500	1.694344
3.015000	1.693707
3.015500	1.693388
3.016000	1.692751
3.016500	1.694025
3.017000	1.695937
3.017500	1.695937
3.018000	1.694662
3.018500	1.693707
3.019000	1.692433
3.019500	1.692433
3.020000	1.692433
3.020500	1.694662
3.021000	1.693388
3.021500	1.693707
3.022000	1.692751
3.022500	1.691158
3.023000	1.690840
3.023500	1.691477
3.024000	1.691796
3.024500	1.693707
3.025000	1.694662
3.025500	1.694344
3.026000	1.694025
3.026500	1.693070
3.027000	1.693070
3.027500	1.693070
3.028000	1.694662
3.028500	1.695299
3.029000	1.695618
3.029500	1.694662
3.030000	1.692751
3.030500	1.692751
3.031000	1.691796
3.031500	1.692751
3.032000	1.693070
3.032500	1.694025
3.033000	1.693707
3.033500	1.693388
3.034000	1.691477
3.034500	1.690203
3.035000	1.691796
3.035500	1.693070
3.036000	1.693707
3.036500	1.694662
3.037000	1.694344
3.037500	1.694344
3.038000	1.693388
3.038500	1.693070
3.039000	1.693388
3.039500	1.695299
3.040000	1.695937
3.040500	1.696255
3.041000	1.694662
3.041500	1.693707
3.042000	1.693707
3.042500	1.693070
3.043000	1.692433
3.043500	1.693707
3.044000	1.694344
3.044500	1.694025
3.045000	1.692433
3.045500	1.691477
3.046000	1.691158
3.046500	1.691796
3.047000	1.693388
3.047500	1.694025
3.048000	1.694981
3.048500	1.694662
3.049000	1.694025
3.049500	1.694025
3.050000	1.694025
3.050500	1.694344
3.051000	1.695299
3.051500	1.696255
3.052000	1.694981
3.052500	1.694344
3.053000	1.694025
3.053500	1.693070
3.054000	1.692433
3.054500	1.693388
3.055000	1.694025
3.055500	1.694662
3.056000	1.694025
3.056500	1.692751
3.057000	1.691477
3.057500	1.691158
3.058000	1.693707
3.058500	1.693388
3.059000	1.694344
3.059500	1.694344
3.060000	1.693707
3.060500	1.694025
3.061000	1.693388
3.061500	1.693707
3.062000	1.695299
3.062500	1.696255
3.063000	1.696574
3.063500	1.694662
3.064000	1.693707
3.064500	1.693070
3.065000	1.692433
3.065500	1.692751
3.066000	1.693707
3.066500	1.694344
3.067000	1.694344
3.067500	1.692751
3.068000	1.691158
3.068500	1.691796
3.069000	1.692433
3.069500	1.693388
3.070000	1.693707
3.070500	1.694662
3.071000	1.695299
3.071500	1.693707
3.072000	1.694025
3.072500	1.692433
3.073000	1.694025
3.073500	1.696255
3.074000	1.695937
3.074500	1.695618
3.075000	1.694344
3.075500	1.693070
3.076000	1.692751
3.076500	1.691796
3.077000	1.693388
3.077500	1.693388
3.078000	1.694662
3.078500	1.694025
3.079000	1.692433
3.079500	1.690203
3.080000	1.690203
3.080500	1.692114
3.081000	1.693707
3.081500	1.693707
3.082000	1.694344
3.082500	1.693388
3.083000	1.694025
3.083500	1.692433
3.084000	1.693388
3.084500	1.694981
3.085000	1.695618
3.085500	1.694981
3.086000	1.694981
3.086500	1.694025
3.087000	1.693070
3.087500	1.693070
3.088000	1.692751
3.088500	1.693070
3.089000	1.693707
3.089500	1.694662
3.090000	1.693388
3.090500	1.691158
3.091000	1.692114
3.091500	1.692114
3.092000	1.693070
3.092500	1.694981
3.093000	1.694981
3.093500	1.694025
3.094000	1.694344
3.094500	1.693707
3.095000	1.693070
3.095500	1.694025
3.096000	1.694344
3.096500	1.696255
3.097000	1.695299
3.097500	1.694662
3.098000	1.693388
3.098500	1.693070
3.099000	1.692433
3.099500	1.693070
3.100000	1.692751
3.100500	1.693707
3.101000	1.694344
3.101500	1.693070
3.102000	1.691477
3.102500	1.690840
3.103000	1.691477
3.103500	1.692433
3.104000	1.693707
3.104500	1.694344
3.105000	1.694344
3.105500	1.694344
3.106000	1.693388
3.106500	1.693070
3.107000	1.692751
3.107500	1.694662
3.108000	1.695618
3.108500	1.695299
3.109000	1.695299
3.109500	1.694344
3.110000	1.693070
3.110500	1.692751
3.111000	1.692114
3.111500	1.692751
3.112000	1.693388
3.112500	1.693388
3.113000	1.693388
3.113500	1.691477
3.114000	1.691158
3.114500	1.691796
3.115000	1.693070
3.115500	1.693707
3.116000	1.694662
3.116500	1.694344
3.117000	1.694025
3.117500	1.692751
3.118000	1.694025
3.118500	1.693707
3.119000	1.694662
3.119500	1.696574
3.120000	1.695299
3.120500	1.694662
3.121000	1.693388
3.121500	1.693070
3.122000	1.692751
3.122500	1.692433
3.123000	1.693707
3.123500	1.693707
3.124000	1.694344
3.124500	1.692751
3.125000	1.691158
3.125500	1.691477
3.126000	1.692114
3.126500	1.693388
3.127000	1.694025
3.127500	1.694662
3.128000	1.694025
3.128500	1.693707
3.129000	1.692751
3.129500	1.692433
3.130000	1.693707
3.130500	1.695937
3.131000	1.695618
3.131500	1.695618
3.132000	1.694025
3.132500	1.693070
3.133000	1.692433
3.133500	1.692751
3.134000	1.692433
3.134500	1.693388
3.135000	1.693388
3.135500	1.693388
3.136000	1.691796
3.136500	1.690840
3.137000	1.691796
3.137500	1.692114
3.138000	1.693388
3.138500	1.694344
3.139000	1.693707
3.139500	1.693707
3.140000	1.693388
3.140500	1.692433
3.141000	1.693707
3.141500	1.694344
3.142000	1.695618
3.142500	1.695299
3.143000	1.694981
3.143500	1.693707
3.144000	1.692751
3.144500	1.692433
3.145000	1.692433
3.145500	1.693070
3.146000	1.694025
3.146500	1.694025
3.147000	1.693070
3.147500	1.691477
3.148000	1.691158
3.148500	1.692433
3.149000	1.693070
3.149500	1.694025
3.150000	1.694025
3.150500	1.693707
3.151000	1.694662
3.151500	1.693388
3.152000	1.692751
3.152500	1.693388
3.153000	1.695618
3.153500	1.695937
3.154000	1.695299
3.154500	1.694662
3.155000	1.694025
3.155500	1.693707
3.156000	1.693070
3.156500	1.693388
3.157000	1.693388
3.157500	1.693070
3.158000	1.694662
3.158500	1.692751
3.159000	1.691477
3.159500	1.689884
3.160000	1.692433
3.160500	1.693388
3.161000	1.694981
3.161500	1.694662
3.162000	1.694344
3.162500	1.694025
3.163000	1.694344
3.163500	1.694344
3.164000	1.693707
3.164500	1.694662
3.165000	1.696255
3.165500	1.695618
3.166000	1.695299
3.166500	1.694025
3.167000	1.693707
3.167500	1.693388
3.168000	1.694025
3.168500	1.693388
3.169000	1.694981
3.169500	1.694344
3.170000	1.693388
3.170500	1.692114
3.171000	1.691158
3.171500	1.692433
3.172000	1.693388
3.172500	1.694662
3.173000	1.694662
3.173500	1.694662
3.174000	1.694344
3.174500	1.694662
3.175000	1.692751
3.175500	1.694344
3.176000	1.696255
3.176500	1.696574
3.177000	1.695937
3.177500	1.694981
3.178000	1.694344
3.178500	1.693070
3.179000	1.693388
3.179500	1.694025
3.180000	1.694344
3.180500	1.694344
3.181000	1.693707
3.181500	1.692751
3.182000	1.691158
3.182500	1.690840
3.183000	1.693388
3.183500	1.694025
3.184000	1.694344
3.184500	1.694662
3.185000	1.695299
3.185500	1.694662
3.186000	1.693388
3.186500	1.693070
3.187000	1.694981
3.187500	1.696892
3.188000	1.696255
3.188500	1.696255
3.189000	1.694981
3.189500	1.694344
3.190000	1.694981
3.190500	1.693388
3.191000	1.693707
3.191500	1.694981
3.192000	1.694025
3.192500	1.694344
3.193000	1.692751
3.193500	1.691158
3.194000	1.692751
3.194500	1.692751
3.195000	1.694344
3.195500	1.694981
3.196000	1.695299
3.196500	1.694344
3.197000	1.693707
3.197500	1.694025
3.198000	1.693070
3.198500	1.694662
3.199000	1.695937
3.199500	1.696255
3.200000	1.695299
3.200500	1.694025
3.201000	1.693707
3.201500	1.692751
3.202000	1.693070
3.202500	1.693070
3.203000	1.693388
3.203500	1.694662
3.204000	1.693707
3.204500	1.693070
3.205000	1.691158
3.205500	1.691477
3.206000	1.693707
3.206500	1.694344
3.207000	1.694662
3.207500	1.695299
3.208000	1.694662
3.208500	1.693707
3.209000	1.693707
3.209500	1.693070
3.210000	1.694981
3.210500	1.695299
3.211000	1.695618
3.211500	1.695937
3.212000	1.694344
3.212500	1.693388
3.213000	1.693707
3.213500	1.692751
3.214000	1.694025
3.214500	1.694662
3.215000	1.694662
3.215500	1.694025
3.216000	1.692433
3.216500	1.690521
3.217000	1.692433
3.217500	1.693070
3.218000	1.693707
3.218500	1.694662
3.219000	1.694662
3.219500	1.694981
3.220000	1.694025
3.220500	1.693707
3.221000	1.694025
3.221500	1.695299
3.222000	1.695937
3.222500	1.696255
3.223000	1.694981
3.223500	1.694662
3.224000	1.693388
3.224500	1.693070
3.225000	1.694025
3.225500	1.694025
3.226000	1.694344
3.226500	1.694025
3.227000	1.693707
3.227500	1.693388
3.228000	1.691158
3.228500	1.691477
3.229000	1.692433
3.229500	1.694662
3.230000	1.694662
3.230500	1.694662
3.231000	1.694662
3.231500	1.694025
3.232000	1.693707
3.232500	1.694344
3.233000	1.694344
3.233500	1.695937
3.234000	1.696574
3.234500	1.695299
3.235000	1.694981
3.235500	1.693388
3.236000	1.693388
3.236500	1.693388
3.237000	1.693388
3.237500	1.694025
3.238000	1.694981
3.238500	1.694025
3.239000	1.692114
3.239500	1.691477
3.240000	1.691796
3.240500	1.693707
3.241000	1.694344
3.241500	1.694662
3.242000	1.694662
3.242500	1.694662
3.243000	1.693388
3.243500	1.693388
3.244000	1.693707
3.244500	1.694662
3.245000	1.695937
3.245500	1.696892
3.246000	1.695299
3.246500	1.694662
3.247000	1.694025
3.247500	1.693707
3.248000	1.692433
3.248500	1.694344
3.249000	1.694662
3.249500	1.694025
3.250000	1.693707
3.250500	1.692751
3.251000	1.691158
3.251500	1.691796
3.252000	1.694025
3.252500	1.694344
3.253000	1.694025
3.253500	1.694981
3.254000	1.694981
3.254500	1.694344
3.255000	1.694025
3.255500	1.693707
3.256000	1.694981
3.256500	1.696255
3.257000	1.696574
3.257500	1.695618
3.258000	1.694344
3.258500	1.693388
3.259000	1.693388
3.259500	1.693707
3.260000	1.694344
3.260500	1.694344
3.261000	1.694662
3.261500	1.693707
3.262000	1.692751
3.262500	1.691796
3.263000	1.691796
3.263500	1.693070
3.264000	1.694662
3.264500	1.694662
3.265000	1.694981
3.265500	1.694662
3.266000	1.694662
3.266500	1.693388
3.267000	1.694662
3.267500	1.694981
3.268000	1.696574
3.268500	1.696574
3.269000	1.695937
3.269500	1.694981
3.270000	1.694344
3.270500	1.693388
3.271000	1.694025
3.271500	1.694344
3.272000	1.694662
3.272500	1.695299
3.273000	1.694981
3.273500	1.692751
3.274000	1.692433
3.274500	1.693070
3.275000	1.694344
3.275500	1.694662
3.276000	1.694981
3.276500	1.694981
3.277000	1.694981
3.277500	1.694981
3.278000	1.694344
3.278500	1.694025
3.279000	1.695618
3.279500	1.697529
3.280000	1.696255
3.280500	1.695618
3.281000	1.694662
3.281500	1.694981
3.282000	1.693707
3.282500	1.693707
3.283000	1.694662
3.283500	1.695937
3.284000	1.694662
3.284500	1.693070
3.285000	1.692751
3.285500	1.692433
3.286000	1.693388
3.286500	1.693707
3.287000	1.695618
3.287500	1.695299
3.288000	1.694981
3.288500	1.694981
3.289000	1.694662
3.289500	1.693707
3.290000	1.694981
3.290500	1.696574
3.291000	1.697211
3.291500	1.696255
3.292000	1.695299
3.292500	1.694662
3.293000	1.695299
3.293500	1.694025
3.294000	1.694025
3.294500	1.695299
3.295000	1.696255
3.295500	1.695618
3.296000	1.693388
3.296500	1.693070
3.297000	1.692433
3.297500	1.694662
3.298000	1.695299
3.298500	1.694981
3.299000	1.694662
3.299500	1.696255
3.300000	1.694662
3.300500	1.694662
3.301000	1.694344
3.301500	1.696574
3.302000	1.697848
3.302500	1.697211
3.303000	1.695937
3.303500	1.694981
3.304000	1.693707
3.304500	1.694344
3.305000	1.694025
3.305500	1.694981
3.306000	1.695618
3.306500	1.694662
3.307000	1.693070
3.307500	1.692751
3.308000	1.692114
3.308500	1.693388
3.309000	1.694025
3.309500	1.694662
3.310000	1.694344
3.310500	1.695299
3.311000	1.694662
3.311500	1.693707
3.312000	1.693388
3.312500	1.694344
3.313000	1.695937
3.313500	1.697529
3.314000	1.695937
3.314500	1.695299
3.315000	1.694344
3.315500	1.693707
3.316000	1.693070
3.316500	1.693707
3.317000	1.694981
3.317500	1.694344
3.318000	1.694344
3.318500	1.693070
3.319000	1.691796
3.319500	1.692751
3.320000	1.693070
3.320500	1.694344
3.321000	1.694981
3.321500	1.694662
3.322000	1.694981
3.322500	1.693707
3.323000	1.693070
3.323500	1.693388
3.324000	1.695299
3.324500	1.696255
3.325000	1.696892
3.325500	1.694981
3.326000	1.694025
3.326500	1.694025
3.327000	1.693070
3.327500	1.693070
3.328000	1.693707
3.328500	1.694981
3.329000	1.694662
3.329500	1.693388
3.330000	1.692433
3.330500	1.691477
3.331000	1.691477
3.331500	1.693070
3.332000	1.694981
3.332500	1.694662
3.333000	1.694662
3.333500	1.694662
3.334000	1.693388
3.334500	1.693707
3.335000	1.693070
3.335500	1.695937
3.336000	1.695937
3.336500	1.695937
3.337000	1.694662
3.337500	1.694025
3.338000	1.693707
3.338500	1.693388
3.339000	1.693070
3.339500	1.694344
3.340000	1.694662
3.340500	1.694025
3.341000	1.692751
3.341500	1.692114
3.342000	1.692114
3.342500	1.693070
3.343000	1.694025
3.343500	1.694025
3.344000	1.694662
3.344500	1.694662
3.345000	1.694344
3.345500	1.693707
3.346000	1.694662
3.346500	1.694981
3.347000	1.695937
3.347500	1.696574
3.348000	1.695618
3.348500	1.694981
3.349000	1.694981
3.349500	1.694025
3.350000	1.693070
3.350500	1.693707
3.351000	1.694662
3.351500	1.694662
3.352000	1.694344
3.352500	1.692114
3.353000	1.692433
3.353500	1.692114
3.354000	1.694981
3.354500	1.694662
3.355000	1.694981
3.355500	1.695937
3.356000	1.695299
3.356500	1.694981
3.357000	1.694981
3.357500	1.694662
3.358000	1.695299
3.358500	1.696892
3.359000	1.697529
3.359500	1.697211
3.360000	1.695299
3.360500	1.694662
3.361000	1.694025
3.361500	1.694025
3.362000	1.694981
3.362500	1.695299
3.363000	1.695618
3.363500	1.695299
3.364000	1.693070
3.364500	1.692114
3.365000	1.693707
3.365500	1.694344
3.366000	1.694344
3.366500	1.694981
3.367000	1.695618
3.367500	1.695937
3.368000	1.695299
3.368500	1.694344
3.369000	1.694344
3.369500	1.695618
3.370000	1.697529
3.370500	1.698485
3.371000	1.695937
3.371500	1.694981
3.372000	1.694662
3.372500	1.694662
3.373000	1.694344
3.373500	1.694981
3.374000	1.695299
3.374500	1.696255
3.375000	1.694662
3.375500	1.693388
3.376000	1.693070
3.376500	1.694025
3.377000	1.693707
3.377500	1.694662
3.378000	1.695937
3.378500	1.696892
3.379000	1.695618
3.379500	1.695299
3.380000	1.695299
3.380500	1.694981
3.381000	1.696255
3.381500	1.698166
3.382000	1.696892
3.382500	1.695937
3.383000	1.694662
3.383500	1.694344
3.384000	1.694981
3.384500	1.694344
3.385000	1.694662
3.385500	1.695299
3.386000	1.695618
3.386500	1.694344
3.387000	1.692433
3.387500	1.691477
3.388000	1.694344
3.388500	1.694981
3.389000	1.694344
3.389500	1.694981
3.390000	1.694981
3.390500	1.694662
3.391000	1.694025
3.391500	1.694662
3.392000	1.695618
3.392500	1.697529
3.393000	1.697211
3.393500	1.696255
3.394000	1.694662
3.394500	1.694981
3.395000	1.694662
3.395500	1.694981
3.396000	1.694662
3.396500	1.694662
3.397000	1.694981
3.397500	1.694025
3.398000	1.692433
3.398500	1.691796
3.399000	1.692751
3.399500	1.694662
3.400000	1.694344
3.400500	1.694344
3.401000	1.694662
3.401500	1.694344
3.402000	1.693707
3.402500	1.694344
3.403000	1.694344
3.403500	1.695937
3.404000	1.696892
3.404500	1.696255
3.405000	1.695937
3.405500	1.694662
3.406000	1.694025
3.406500	1.693388
3.407000	1.693707
3.407500	1.694662
3.408000	1.694981
3.408500	1.694662
3.409000	1.694344
3.409500	1.692751
3.410000	1.691158
3.410500	1.692751
3.411000	1.693707
3.411500	1.695299
3.412000	1.695618
3.412500	1.695618
3.413000	1.694662
3.413500	1.694662
3.414000	1.694025
3.414500	1.694344
3.415000	1.695937
3.415500	1.697211
3.416000	1.696255
3.416500	1.694344
3.417000	1.693707
3.417500	1.694344
3.418000	1.693388
3.418500	1.694025
3.419000	1.694344
3.419500	1.695618
3.420000	1.694662
3.420500	1.693070
3.421000	1.692433
3.421500	1.692751
3.422000	1.693388
3.422500	1.694344
3.423000	1.694662
3.423500	1.695299
3.424000	1.694981
3.424500	1.694981
3.425000	1.693707
3.425500	1.693707
3.426000	1.696255
3.426500	1.696574
3.427000	1.696892
3.427500	1.696255
3.428000	1.695299
3.428500	1.694662
3.429000	1.693707
3.429500	1.694344
3.430000	1.694662
3.430500	1.694981
3.431000	1.694981
3.431500	1.694344
3.432000	1.693070
3.432500	1.692433
3.433000	1.693070
3.433500	1.694025
3.434000	1.694662
3.434500	1.695299
3.435000	1.695618
3.435500	1.694662
3.436000	1.694662
3.436500	1.694344
3.437000	1.694344
3.437500	1.695618
3.438000	1.696892
3.438500	1.697211
3.439000	1.695299
3.439500	1.694662
3.440000	1.694025
3.440500	1.694025
3.441000	1.694025
3.441500	1.694662
3.442000	1.694981
3.442500	1.694981
3.443000	1.693707
3.443500	1.692433
3.444000	1.690521
3.444500	1.692751
3.445000	1.693707
3.445500	1.694344
3.446000	1.694344
3.446500	1.694981
3.447000	1.694981
3.447500	1.694344
3.448000	1.694344
3.448500	1.694981
3.449000	1.696255
3.449500	1.697211
3.450000	1.696255
3.450500	1.695937
3.451000	1.694981
3.451500	1.694025
3.452000	1.693070
3.452500	1.693388
3.453000	1.694344
3.453500	1.694981
3.454000	1.694662
3.454500	1.693070
3.455000	1.692114
3.455500	1.692114
3.456000	1.693388
3.456500	1.693707
3.457000	1.694662
3.457500	1.695299
3.458000	1.695618
3.458500	1.695937
3.459000	1.694025
3.459500	1.693388
3.460000	1.694662
3.460500	1.696255
3.461000	1.696892
3.461500	1.696892
3.462000	1.694662
3.462500	1.694025
3.463000	1.693388
3.463500	1.693707
3.464000	1.693707
3.464500	1.694662
3.465000	1.694981
3.465500	1.694981
3.466000	1.693388
3.466500	1.692114
3.467000	1.691796
3.467500	1.693070
3.468000	1.693388
3.468500	1.694981
3.469000	1.694981
3.469500	1.694662
3.470000	1.694981
3.470500	1.693707
3.471000	1.693707
3.471500	1.694662
3.472000	1.695618
3.472500	1.696255
3.473000	1.696574
3.473500	1.694344
3.474000	1.694025
3.474500	1.692751
3.475000	1.693388
3.475500	1.693707
3.476000	1.694344
3.476500	1.694662
3.477000	1.694981
3.477500	1.693388
3.478000	1.691796
3.478500	1.691477
3.479000	1.691796
3.479500	1.693388
3.480000	1.694344
3.480500	1.694662
3.481000	1.695299
3.481500	1.694025
3.482000	1.694025
3.482500	1.693388
3.483000	1.693388
3.483500	1.694344
3.484000	1.695937
3.484500	1.696255
3.485000	1.695618
3.485500	1.694344
3.486000	1.693388
3.486500	1.694662
3.487000	1.693707
3.487500	1.694344
3.488000	1.694344
3.488500	1.694981
3.489000	1.694662
3.489500	1.692433
3.490000	1.692114
3.490500	1.692114
3.491000	1.692751
3.491500	1.694344
3.492000	1.694344
3.492500	1.694981
3.493000	1.694344
3.493500	1.694662
3.494000	1.694025
3.494500	1.693070
3.495000	1.694662
3.495500	1.696255
3.496000	1.696574
3.496500	1.696255
3.497000	1.695299
3.497500	1.694662
3.498000	1.693707
3.498500	1.694344
3.499000	1.694025
3.499500	1.694662
3.500000	1.695299
3.500500	1.694662
3.501000	1.693070
3.501500	1.691796
3.502000	1.692751
3.502500	1.694025
3.503000	1.694662
3.503500	1.695299
3.504000	1.695299
3.504500	1.694981
3.505000	1.695299
3.505500	1.694344
3.506000	1.694662
3.506500	1.694981
3.507000	1.696574
3.507500	1.696574
3.508000	1.696255
3.508500	1.696255
3.509000	1.694662
3.509500	1.694662
3.510000	1.692751
3.510500	1.693707
3.511000	1.694662
3.511500	1.694981
3.512000	1.694344
3.512500	1.693707
3.513000	1.693070
3.513500	1.692114
3.514000	1.692433
3.514500	1.694344
3.515000	1.694662
3.515500	1.694981
3.516000	1.694662
3.516500	1.694981
3.517000	1.694662
3.517500	1.693707
3.518000	1.694344
3.518500	1.695618
3.519000	1.696892
3.519500	1.696255
3.520000	1.695937
3.520500	1.694662
3.521000	1.694662
3.521500	1.694025
3.522000	1.693388
3.522500	1.694662
3.523000	1.694981
3.523500	1.695299
3.524000	1.694662
3.524500	1.692751
3.525000	1.691796
3.525500	1.692114
3.526000	1.692751
3.526500	1.694662
3.527000	1.694344
3.527500	1.694662
3.528000	1.694981
3.528500	1.694662
3.529000	1.694344
3.529500	1.694344
3.530000	1.694981
3.530500	1.696255
3.531000	1.697529
3.531500	1.696574
3.532000	1.695618
3.532500	1.694662
3.533000	1.694025
3.533500	1.693388
3.534000	1.693388
3.534500	1.694981
3.535000	1.694981
3.535500	1.694344
3.536000	1.693388
3.536500	1.692114
3.537000	1.691158
3.537500	1.692433
3.538000	1.693388
3.538500	1.694981
3.539000	1.694662
3.539500	1.694981
3.540000	1.695299
3.540500	1.694344
3.541000	1.693388
3.541500	1.694981
3.542000	1.695299
3.542500	1.696574
3.543000	1.696892
3.543500	1.696255
3.544000	1.694344
3.544500	1.693707
3.545000	1.693707
3.545500	1.694025
3.546000	1.693388
3.546500	1.694662
3.547000	1.694981
3.547500	1.693707
3.548000	1.692114
3.548500	1.691796
3.549000	1.693070
3.549500	1.694025
3.550000	1.694025
3.550500	1.695299
3.551000	1.695299
3.551500	1.694981
3.552000	1.694662
3.552500	1.693707
3.553000	1.694025
3.553500	1.695937
3.554000	1.697211
3.554500	1.696574
3.555000	1.695937
3.555500	1.694344
3.556000	1.693707
3.556500	1.694344
3.557000	1.694025
3.557500	1.694025
3.558000	1.694662
3.558500	1.694025
3.559000	1.693707
3.559500	1.693070
3.560000	1.691477
3.560500	1.692114
3.561000	1.692751
3.561500	1.693707
3.562000	1.694344
3.562500	1.694662
3.563000	1.695299
3.563500	1.694344
3.564000	1.694662
3.564500	1.694025
3.565000	1.694981
3.565500	1.697211
3.566000	1.697529
3.566500	1.696574
3.567000	1.695618
3.567500	1.694662
3.568000	1.693707
3.568500	1.693388
3.569000	1.694344
3.569500	1.694025
3.570000	1.694981
3.570500	1.694344
3.571000	1.694025
3.571500	1.692433
3.572000	1.692114
3.572500	1.692433
3.573000	1.694662
3.573500	1.694981
3.574000	1.694981
3.574500	1.695299
3.575000	1.694662
3.575500	1.694344
3.576000	1.694344
3.576500	1.694344
3.577000	1.695937
3.577500	1.696574
3.578000	1.695937
3.578500	1.694981
3.579000	1.694344
3.579500	1.694344
3.580000	1.693388
3.580500	1.693707
3.581000	1.694025
3.581500	1.694344
3.582000	1.694981
3.582500	1.692751
3.583000	1.692114
3.583500	1.692114
3.584000	1.692433
3.584500	1.694025
3.585000	1.694662
3.585500	1.694662
3.586000	1.694662
3.586500	1.694344
3.587000	1.694025
3.587500	1.694025
3.588000	1.694344
3.588500	1.696255
3.589000	1.696574
3.589500	1.695618
3.590000	1.695299
3.590500	1.693388
3.591000	1.693070
3.591500	1.693388
3.592000	1.693388
3.592500	1.694344
3.593000	1.695299
3.593500	1.694344
3.594000	1.692751
3.594500	1.691477
3.595000	1.691477
3.595500	1.692433
3.596000	1.694025
3.596500	1.694981
3.597000	1.694981
3.597500	1.694662
3.598000	1.694981
3.598500	1.693707
3.599000	1.693388
3.599500	1.694662
3.600000	1.696255
3.600500	1.697211
3.601000	1.695937
3.601500	1.694662
3.602000	1.693707
3.602500	1.693707
3.603000	1.692751
3.603500	1.693070
3.604000	1.693070
3.604500	1.694025
3.605000	1.694025
3.605500	1.692433
3.606000	1.691477
3.606500	1.691158
3.607000	1.692751
3.607500	1.693707
3.608000	1.693707
3.608500	1.694344
3.609000	1.694981
3.609500	1.693707
3.610000	1.693707
3.610500	1.694025
3.611000	1.694344
3.611500	1.696255
3.612000	1.696574
3.612500	1.695618
3.613000	1.694344
3.613500	1.693388
3.614000	1.693070
3.614500	1.692751
3.615000	1.692751
3.615500	1.694662
3.616000	1.694662
3.616500	1.693388
3.617000	1.692433
3.617500	1.690840
3.618000	1.692114
3.618500	1.692114
3.619000	1.694344
3.619500	1.694981
3.620000	1.694344
3.620500	1.694662
3.621000	1.694662
3.621500	1.693707
3.622000	1.693707
3.622500	1.694662
3.623000	1.696574
3.623500	1.696574
3.624000	1.695618
3.624500	1.694662
3.625000	1.693388
3.625500	1.694025
3.626000	1.693388
3.626500	1.693707
3.627000	1.694662
3.627500	1.694344
3.628000	1.694344
3.628500	1.692114
3.629000	1.691158
3.629500	1.692433
3.630000	1.693070
3.630500	1.694662
3.631000	1.694662
3.631500	1.694981
3.632000	1.694344
3.632500	1.694662
3.633000	1.693388
3.633500	1.694662
3.634000	1.694344
3.634500	1.696574
3.635000	1.696892
3.635500	1.695299
3.636000	1.694662
3.636500	1.693707
3.637000	1.693707
3.637500	1.693070
3.638000	1.693388
3.638500	1.693707
3.639000	1.694344
3.639500	1.691796
3.640000	1.691796
3.640500	1.691158
3.641000	1.692433
3.641500	1.693707
3.642000	1.694344
3.642500	1.694662
3.643000	1.694344
3.643500	1.694981
3.644000	1.693707
3.644500	1.693070
3.645000	1.694025
3.645500	1.695618
3.646000	1.697211
3.646500	1.695937
3.647000	1.694981
3.647500	1.694344
3.648000	1.693388
3.648500	1.692433
3.649000	1.693070
3.649500	1.694344
3.650000	1.694025
3.650500	1.693070
3.651000	1.693070
3.651500	1.691158
3.652000	1.692114
3.652500	1.693707
3.653000	1.694344
3.653500	1.694662
3.654000	1.694981
3.654500	1.694662
3.655000	1.694662
3.655500	1.692751
3.656000	1.693070
3.656500	1.694662
3.657000	1.696255
3.657500	1.695937
3.658000	1.695299
3.658500	1.694344
3.659000	1.694025
3.659500	1.692114
3.660000	1.693070
3.660500	1.693070
3.661000	1.694025
3.661500	1.694662
3.662000	1.693707
3.662500	1.691158
3.663000	1.691477
3.663500	1.692433
3.664000	1.693070
3.664500	1.693388
3.665000	1.694662
3.665500	1.694981
3.666000	1.694662
3.666500	1.694025
3.667000	1.693070
3.667500	1.693707
3.668000	1.695299
3.668500	1.695937
3.669000	1.696574
3.669500	1.694662
3.670000	1.694025
3.670500	1.693707
3.671000	1.692751
3.671500	1.692751
3.672000	1.693070
3.672500	1.693388
3.673000	1.694025
3.673500	1.692433
3.674000	1.692114
3.674500	1.690840
3.675000	1.692114
3.675500	1.693388
3.676000	1.693388
3.676500	1.694025
3.677000	1.694662
3.677500	1.694344
3.678000	1.694025
3.678500	1.693388
3.679000	1.693707
3.679500	1.695618
3.680000	1.696892
3.680500	1.695937
3.681000	1.694344
3.681500	1.693707
3.682000	1.693388
3.682500	1.692433
3.683000	1.692751
3.683500	1.694344
3.684000	1.694344
3.684500	1.694662
3.685000	1.692114
3.685500	1.691796
3.686000	1.691158
3.686500	1.693707
3.687000	1.694025
3.687500	1.694981
3.688000	1.695299
3.688500	1.694344
3.689000	1.694344
3.689500	1.694025
3.690000	1.693707
3.690500	1.694662
3.691000	1.695937
3.691500	1.696574
3.692000	1.695618
3.692500	1.694662
3.693000	1.694662
3.693500	1.693707
3.694000	1.692751
3.694500	1.693707
3.695000	1.694344
3.695500	1.694662
3.696000	1.694662
3.696500	1.693070
3.697000	1.691796
3.697500	1.691158
3.698000	1.692114
3.698500	1.693070
3.699000	1.694344
3.699500	1.694344
3.700000	1.694662
3.700500	1.694981
3.701000	1.694025
3.701500	1.693707
3.702000	1.694344
3.702500	1.696255
3.703000	1.696892
3.703500	1.695299
3.704000	1.694981
3.704500	1.694025
3.705000	1.693070
3.705500	1.693388
3.706000	1.692751
3.706500	1.694025
3.707000	1.694025
3.707500	1.694662
3.708000	1.693070
3.708500	1.692433
3.709000	1.691796
3.709500	1.692433
3.710000	1.693707
3.710500	1.694344
3.711000	1.695299
3.711500	1.694344
3.712000	1.694981
3.712500	1.694025
3.713000	1.693707
3.713500	1.694344
3.714000	1.695937
3.714500	1.696255
3.715000	1.695618
3.715500	1.694662
3.716000	1.694344
3.716500	1.693070
3.717000	1.693388
3.717500	1.693070
3.718000	1.694662
3.718500	1.694662
3.719000	1.694981
3.719500	1.694025
3.720000	1.692114
3.720500	1.691796
3.721000	1.692751
3.721500	1.694025
3.722000	1.694344
3.722500	1.694662
3.723000	1.694981
3.723500	1.694662
3.724000	1.694025
3.724500	1.694344
3.725000	1.694025
3.725500	1.694981
3.726000	1.697529
3.726500	1.696574
3.727000	1.695618
3.727500	1.694344
3.728000	1.693707
3.728500	1.693707
3.729000	1.694025
3.729500	1.694662
3.730000	1.694662
3.730500	1.694981
3.731000	1.693707
3.731500	1.692751
3.732000	1.691477
3.732500	1.692751
3.733000	1.694662
3.733500	1.694344
3.734000	1.694981
3.734500	1.694662
3.735000	1.694662
3.735500	1.694662
3.736000	1.693388
3.736500	1.694025
3.737000	1.694344
3.737500	1.696255
3.738000	1.696574
3.738500	1.695618
3.739000	1.694981
3.739500	1.694344
3.740000	1.693388
3.740500	1.693707
3.741000	1.693070
3.741500	1.694025
3.742000	1.695299
3.742500	1.694025
3.743000	1.693070
3.743500	1.691477
3.744000	1.692433
3.744500	1.692114
3.745000	1.693707
3.745500	1.694662
3.746000	1.695299
3.746500	1.695299
3.747000	1.693707
3.747500	1.693707
3.748000	1.694025
3.748500	1.693707
3.749000	1.695299
3.749500	1.696255
3.750000	1.696892
3.750500	1.694662
3.751000	1.694662
3.751500	1.693707
3.752000	1.693388
3.752500	1.693388
3.753000	1.694344
3.753500	1.695299
3.754000	1.694662
3.754500	1.692433
3.755000	1.691796
3.755500	1.691477
3.756000	1.692751
3.756500	1.692751
3.757000	1.694025
3.757500	1.694981
3.758000	1.694344
3.758500	1.694662
3.759000	1.693388
3.759500	1.692433
3.760000	1.694025
3.760500	1.694981
3.761000	1.696255
3.761500	1.696892
3.762000	1.694662
3.762500	1.694344
3.763000	1.693707
3.763500	1.693707
3.764000	1.693070
3.764500	1.693388
3.765000	1.694662
3.765500	1.694025
3.766000	1.694344
3.766500	1.691796
3.767000	1.691796
3.767500	1.692114
3.768000	1.693070
3.768500	1.693707
3.769000	1.694662
3.769500	1.694662
3.770000	1.694662
3.770500	1.693707
3.771000	1.692751
3.771500	1.694344
3.772000	1.694662
3.772500	1.695937
3.773000	1.695937
3.773500	1.694981
3.774000	1.694662
3.774500	1.694662
3.775000	1.693707
3.775500	1.693070
3.776000	1.693070
3.776500	1.694981
3.777000	1.694981
3.777500	1.694025
3.778000	1.692114
3.778500	1.692433
3.779000	1.693070
3.779500	1.699122
3.780000	1.694344
3.780500	1.694981
3.781000	1.694981
3.781500	1.694025
3.782000	1.694025
3.782500	1.693388
3.783000	1.694344
3.783500	1.694981
3.784000	1.696255
3.784500	1.696255
3.785000	1.694662
3.785500	1.694025
3.786000	1.693707
3.786500	1.693388
3.787000	1.693070
3.787500	1.693707
3.788000	1.693707
3.788500	1.694662
3.789000	1.693388
3.789500	1.691477
3.790000	1.691158
3.790500	1.692433
3.791000	1.693070
3.791500	1.694344
3.792000	1.693707
3.792500	1.694981
3.793000	1.694662
3.793500	1.693707
3.794000	1.693388
3.794500	1.694662
3.795000	1.694662
3.795500	1.696892
3.796000	1.695937
3.796500	1.694981
3.797000	1.694344
3.797500	1.693707
3.798000	1.692751
3.798500	1.693388
3.799000	1.693707
3.799500	1.694981
3.800000	1.694981
3.800500	1.694025
3.801000	1.692433
3.801500	1.691477
3.802000	1.693070
3.802500	1.692751
3.803000	1.694344
3.803500	1.694344
3.804000	1.694344
3.804500	1.693388
3.805000	1.694025
3.805500	1.694344
3.806000	1.693707
3.806500	1.694662
3.807000	1.695618
3.807500	1.696255
3.808000	1.694662
3.808500	1.694662
3.809000	1.692751
3.809500	1.693070
3.810000	1.692433
3.810500	1.693707
3.811000	1.694662
3.811500	1.694981
3.812000	1.693388
3.812500	1.691796
3.813000	1.690840
3.813500	1.692114
3.814000	1.693388
3.814500	1.694025
3.815000	1.695299
3.815500	1.695299
3.816000	1.694025
3.816500	1.693070
3.817000	1.693388
3.817500	1.693070
3.818000	1.694981
3.818500	1.696892
3.819000	1.696574
3.819500	1.695299
3.820000	1.694344
3.820500	1.693707
3.821000	1.692433
3.821500	1.692751
3.822000	1.694025
3.822500	1.693707
3.823000	1.694344
3.823500	1.693707
3.824000	1.692114
3.824500	1.690840
3.825000	1.691796
3.825500	1.693388
3.826000	1.693707
3.826500	1.694025
3.827000	1.694662
3.827500	1.694662
3.828000	1.693388
3.828500	1.692751
3.829000	1.693070
3.829500	1.694025
3.830000	1.696255
3.830500	1.695618
3.831000	1.695618
3.831500	1.693707
3.832000	1.694662
3.832500	1.692433
3.833000	1.693707
3.833500	1.693707
3.834000	1.694344
3.834500	1.694344
3.835000	1.693707
3.835500	1.691796
3.836000	1.690840
3.836500	1.691158
3.837000	1.692751
3.837500	1.693388
3.838000	1.693707
3.838500	1.694025
3.839000	1.694344
3.839500	1.693388
3.840000	1.693388
3.840500	1.692751
3.841000	1.694025
3.841500	1.695937
3.842000	1.695937
3.842500	1.695299
3.843000	1.693388
3.843500	1.693388
3.844000	1.693070
3.844500	1.692433
3.845000	1.693070
3.845500	1.694344
3.846000	1.694662
3.846500	1.694344
3.847000	1.692433
3.847500	1.691158
3.848000	1.690521
3.848500	1.693070
3.849000	1.693707
3.849500	1.694344
3.850000	1.694025
3.850500	1.694662
3.851000	1.694662
3.851500	1.694662
3.852000	1.693070
3.852500	1.693707
3.853000	1.696574
3.853500	1.696892
3.854000	1.694981
3.854500	1.693707
3.855000	1.693070
3.855500	1.693707
3.856000	1.693070
3.856500	1.693388
3.857000	1.693707
3.857500	1.694025
3.858000	1.693388
3.858500	1.691796
3.859000	1.690840
3.859500	1.692433
3.860000	1.691796
3.860500	1.694344
3.861000	1.694981
3.861500	1.694662
3.862000	1.694981
3.862500	1.694344
3.863000	1.694025
3.863500	1.693388
3.864000	1.694981
3.864500	1.696574
3.865000	1.696255
3.865500	1.695618
3.866000	1.694662
3.866500	1.694025
3.867000	1.693388
3.867500	1.693388
3.868000	1.693388
3.868500	1.693707
3.869000	1.694344
3.869500	1.693707
3.870000	1.692433
3.870500	1.690521
3.871000	1.691477
3.871500	1.692751
3.872000	1.693388
3.872500	1.694662
3.873000	1.694662
3.873500	1.694662
3.874000	1.694662
3.874500	1.693707
3.875000	1.692751
3.875500	1.694344
3.876000	1.695618
3.876500	1.697211
3.877000	1.696255
3.877500	1.694662
3.878000	1.694025
3.878500	1.693707
3.879000	1.694344
3.879500	1.692751
3.880000	1.693707
3.880500	1.694344
3.881000	1.694344
3.881500	1.692751
3.882000	1.692114
3.882500	1.690521
3.883000	1.692433
3.883500	1.693707
3.884000	1.694344
3.884500	1.694981
3.885000	1.694344
3.885500	1.694662
3.886000	1.693388
3.886500	1.693388
3.887000	1.693707
3.887500	1.695299
3.888000	1.696892
3.888500	1.696574
3.889000	1.695937
3.889500	1.694662
3.890000	1.694025
3.890500	1.693707
3.891000	1.693707
3.891500	1.693707
3.892000	1.694344
3.892500	1.694662
3.893000	1.694025
3.893500	1.692433
3.894000	1.691477
3.894500	1.692114
3.895000	1.693707
3.895500	1.694025
3.896000	1.694344
3.896500	1.694025
3.897000	1.694981
3.897500	1.694981
3.898000	1.693707
3.898500	1.694662
3.899000	1.695299
3.899500	1.695937
3.900000	1.696255
3.900500	1.694662
3.901000	1.693707
3.901500	1.692751
3.902000	1.693388
3.902500	1.693707
3.903000	1.694025
3.903500	1.694344
3.904000	1.694662
3.904500	1.693388
3.905000	1.693070
3.905500	1.692114
3.906000	1.692433
3.906500	1.693388
3.907000	1.694344
3.907500	1.694662
3.908000	1.694662
3.908500	1.694662
3.909000	1.694662
3.909500	1.693388
3.910000	1.694344
3.910500	1.695937
3.911000	1.696255
3.911500	1.698166
3.912000	1.695937
3.912500	1.694344
3.913000	1.694662
3.913500	1.693388
3.914000	1.693388
3.914500	1.693707
3.915000	1.694344
3.915500	1.694025
3.916000	1.694344
3.916500	1.692433
3.917000	1.691477
3.917500	1.692114
3.918000	1.693388
3.918500	1.694981
3.919000	1.694344
3.919500	1.695618
3.920000	1.694662
3.920500	1.694662
3.921000	1.692751
3.921500	1.693707
3.922000	1.694981
3.922500	1.695937
3.923000	1.696892
3.923500	1.695618
3.924000	1.694981
3.924500	1.694344
3.925000	1.693707
3.925500	1.693388
3.926000	1.693388
3.926500	1.694662
3.927000	1.694662
3.927500	1.694344
3.928000	1.693707
3.928500	1.692114
3.929000	1.692433
3.929500	1.693070
3.930000	1.694025
3.930500	1.694662
3.931000	1.694662
3.931500	1.694981
3.932000	1.695299
3.932500	1.693388
3.933000	1.693707
3.933500	1.694662
3.934000	1.695618
3.934500	1.695937
3.935000	1.696255
3.935500	1.694662
3.936000	1.693707
3.936500	1.694344
3.937000	1.692751
3.937500	1.692433
3.938000	1.694025
3.938500	1.694344
3.939000	1.694025
3.939500	1.693070
3.940000	1.691796
3.940500	1.691477
3.941000	1.692751
3.941500	1.694981
3.942000	1.694344
3.942500	1.694662
3.943000	1.694662
3.943500	1.694981
3.944000	1.695299
3.944500	1.694025
3.945000	1.693707
3.945500	1.695618
3.946000	1.696255
3.946500	1.696574
3.947000	1.694981
3.947500	1.694344
3.948000	1.693707
3.948500	1.693070
3.949000	1.692751
3.949500	1.694025
3.950000	1.694344
3.950500	1.694662
3.951000	1.693388
3.951500	1.691477
3.952000	1.691796
3.952500	1.692751
3.953000	1.694025
3.953500	1.694662
3.954000	1.694025
3.954500	1.694344
3.955000	1.695299
3.955500	1.694662
3.956000	1.693388
3.956500	1.694662
3.957000	1.695937
3.957500	1.696255
3.958000	1.696892
3.958500	1.694662
3.959000	1.694344
3.959500	1.694025
3.960000	1.693707
3.960500	1.693707
3.961000	1.694025
3.961500	1.694981
3.962000	1.694662
3.962500	1.693388
3.963000	1.692433
3.963500	1.692114
3.964000	1.692751
3.964500	1.694025
3.965000	1.694981
3.965500	1.695299
3.966000	1.695299
3.966500	1.695299
3.967000	1.694344
3.967500	1.693707
3.968000	1.694344
3.968500	1.694981
3.969000	1.696574
3.969500	1.696574
3.970000	1.694981
3.970500	1.694025
3.971000	1.693707
3.971500	1.693707
3.972000	1.692751
3.972500	1.694025
3.973000	1.694662
3.973500	1.694025
3.974000	1.693707
3.974500	1.691477
3.975000	1.691158
3.975500	1.692433
3.976000	1.693707
3.976500	1.694981
3.977000	1.694662
3.977500	1.695618
3.978000	1.695299
3.978500	1.694344
3.979000	1.693707
3.979500	1.693707
3.980000	1.695299
3.980500	1.695937
3.981000	1.696892
3.981500	1.695618
3.982000	1.694981
3.982500	1.694344
3.983000	1.693070
3.983500	1.693388
3.984000	1.693388
3.984500	1.694025
3.985000	1.695299
3.985500	1.694025
3.986000	1.692114
3.986500	1.691477
3.987000	1.692114
3.987500	1.693388
3.988000	1.694025
3.988500	1.694981
3.989000	1.694662
3.989500	1.694344
3.990000	1.694025
3.990500	1.694025
3.991000	1.693707
3.991500	1.695618
3.992000	1.696574
3.992500	1.696892
3.993000	1.695618
3.993500	1.694981
3.994000	1.694344
3.994500	1.694344
3.995000	1.692751
3.995500	1.693707
3.996000	1.694981
3.996500	1.694662
3.997000	1.694662
3.997500	1.692751
3.998000	1.691158
3.998500	1.691477
3.999000	1.693707
3.999500	1.696574
4.000000	1.694981
4.000500	1.694662
4.001000	1.694981
4.001500	1.693707
4.002000	1.693388
4.002500	1.693070
4.003000	1.694981
4.003500	1.695299
4.004000	1.697211
4.004500	1.695937
4.005000	1.694662
4.005500	1.694025
4.006000	1.693707
4.006500	1.692751
4.007000	1.694662
4.007500	1.694025
4.008000	1.694662
4.008500	1.693707
4.009000	1.692114
4.009500	1.691158
4.010000	1.691477
4.010500	1.693388
4.011000	1.694025
4.011500	1.694662
4.012000	1.694344
4.012500	1.694662
4.013000	1.693707
4.013500	1.693707
4.014000	1.693707
4.014500	1.694662
4.015000	1.696255
4.015500	1.695937
4.016000	1.695618
4.016500	1.694662
4.017000	1.693388
4.017500	1.693388
4.018000	1.692751
4.018500	1.693388
4.019000	1.693707
4.019500	1.694344
4.020000	1.693707
4.020500	1.692751
4.021000	1.691158
4.021500	1.690840
4.022000	1.693070
4.022500	1.693388
4.023000	1.694662
4.023500	1.694662
4.024000	1.694662
4.024500	1.694025
4.025000	1.694025
4.025500	1.694025
4.026000	1.694344
4.026500	1.695937
4.027000	1.697211
4.027500	1.696255
4.028000	1.694662
4.028500	1.694662
4.029000	1.693070
4.029500	1.693070
4.030000	1.693707
4.030500	1.694344
4.031000	1.694344
4.031500	1.695299
4.032000	1.693388
4.032500	1.691796
4.033000	1.692114
4.033500	1.692751
4.034000	1.694344
4.034500	1.694981
4.035000	1.694662
4.035500	1.695299
4.036000	1.694981
4.036500	1.694981
4.037000	1.694344
4.037500	1.694662
4.038000	1.694981
4.038500	1.696255
4.039000	1.696574
4.039500	1.695299
4.040000	1.694662
4.040500	1.693707
4.041000	1.693707
4.041500	1.693707
4.042000	1.694025
4.042500	1.694662
4.043000	1.694662
4.043500	1.693707
4.044000	1.693388
4.044500	1.692114
4.045000	1.692751
4.045500	1.694025
4.046000	1.694344
4.046500	1.695299
4.047000	1.695299
4.047500	1.694662
4.048000	1.694662
4.048500	1.694344
4.049000	1.694662
4.049500	1.694981
4.050000	1.696255
4.050500	1.697211
4.051000	1.696892
4.051500	1.695618
4.052000	1.694344
4.052500	1.694344
4.053000	1.692751
4.053500	1.694025
4.054000	1.694981
4.054500	1.695299
4.055000	1.694662
4.055500	1.694662
4.056000	1.692114
4.056500	1.692751
4.057000	1.693070
4.057500	1.693707
4.058000	1.694662
4.058500	1.695299
4.059000	1.694662
4.059500	1.694344
4.060000	1.694344
4.060500	1.694025
4.061000	1.694344
4.061500	1.695618
4.062000	1.696574
4.062500	1.696574
4.063000	1.694981
4.063500	1.694344
4.064000	1.693707
4.064500	1.693388
4.065000	1.693070
4.065500	1.694025
4.066000	1.694025
4.066500	1.694344
4.067000	1.692751
4.067500	1.692433
4.068000	1.691477
4.068500	1.692114
4.069000	1.693388
4.069500	1.694981
4.070000	1.694981
4.070500	1.694662
4.071000	1.694662
4.071500	1.693707
4.072000	1.693707
4.072500	1.694344
4.073000	1.694662
4.073500	1.695937
4.074000	1.695937
4.074500	1.694662
4.075000	1.693388
4.075500	1.693388
4.076000	1.692433
4.076500	1.693070
4.077000	1.693070
4.077500	1.692433
4.078000	1.694662
4.078500	1.693070
4.079000	1.691158
4.079500	1.691158
4.080000	1.691796
4.080500	1.692433
4.081000	1.693707
4.081500	1.693707
4.082000	1.694025
4.082500	1.694662
4.083000	1.693070
4.083500	1.692433
4.084000	1.693388
4.084500	1.694025
4.085000	1.694981
4.085500	1.695937
4.086000	1.694981
4.086500	1.693388
4.087000	1.694025
4.087500	1.692751
4.088000	1.692433
4.088500	1.692751
4.089000	1.693070
4.089500	1.694025
4.090000	1.693388
4.090500	1.693070
4.091000	1.691158
4.091500	1.690840
4.092000	1.691796
4.092500	1.693070
4.093000	1.694025
4.093500	1.694025
4.094000	1.694662
4.094500	1.693388
4.095000	1.693070
4.095500	1.693070
4.096000	1.694344
4.096500	1.694981
4.097000	1.695618
4.097500	1.695618
4.098000	1.694981
4.098500	1.693707
4.099000	1.693388
4.099500	1.693070
4.100000	1.693070
4.100500	1.694662
4.101000	1.694662
4.101500	1.694025
4.102000	1.692751
4.102500	1.691796
4.103000	1.690840
4.103500	1.692751
4.104000	1.693388
4.104500	1.694662
4.105000	1.694344
4.105500	1.694981
4.106000	1.694662
4.106500	1.693388
4.107000	1.694025
4.107500	1.693707
4.108000	1.695937
4.108500	1.696574
4.109000	1.695937
4.109500	1.695299
4.110000	1.694662
4.110500	1.694025
4.111000	1.693388
4.111500	1.693707
4.112000	1.693707
4.112500	1.694981
4.113000	1.694662
4.113500	1.693388
4.114000	1.692751
4.114500	1.692114
4.115000	1.693388
4.115500	1.694344
4.116000	1.694662
4.116500	1.694344
4.117000	1.694981
4.117500	1.694981
4.118000	1.693707
4.118500	1.693388
4.119000	1.694344
4.119500	1.695618
4.120000	1.696892
4.120500	1.696255
4.121000	1.695299
4.121500	1.694344
4.122000	1.693707
4.122500	1.693707
4.123000	1.693707
4.123500	1.694344
4.124000	1.694981
4.124500	1.694662
4.125000	1.694025
4.125500	1.691477
4.126000	1.693070
4.126500	1.692433
4.127000	1.694025
4.127500	1.694344
4.128000	1.694662
4.128500	1.694344
4.129000	1.694662
4.129500	1.694981
4.130000	1.694344
4.130500	1.694025
4.131000	1.694981
4.131500	1.696255
4.132000	1.695937
4.132500	1.695618
4.133000	1.694344
4.133500	1.694025
4.134000	1.693707
4.134500	1.693388
4.135000	1.694025
4.135500	1.694662
4.136000	1.694981
4.136500	1.694025
4.137000	1.692114
4.137500	1.691477
4.138000	1.692433
4.138500	1.693070
4.139000	1.694662
4.139500	1.694662
4.140000	1.694662
4.140500	1.694662
4.141000	1.693070
4.141500	1.694344
4.142000	1.694344
4.142500	1.694662
4.143000	1.696892
4.143500	1.696574
4.144000	1.695299
4.144500	1.694662
4.145000	1.693707
4.145500	1.694025
4.146000	1.693707
4.146500	1.693707
4.147000	1.694344
4.147500	1.694981
4.148000	1.694025
4.148500	1.693388
4.149000	1.691158
4.149500	1.692114
4.150000	1.693388
4.150500	1.694344
4.151000	1.693707
4.151500	1.695299
4.152000	1.694662
4.152500	1.694344
4.153000	1.694344
4.153500	1.693707
4.154000	1.694344
4.154500	1.695618
4.155000	1.696892
4.155500	1.695618
4.156000	1.694025
4.156500	1.694025
4.157000	1.693707
4.157500	1.693388
4.158000	1.694662
4.158500	1.693707
4.159000	1.694662
4.159500	1.694344
4.160000	1.693388
4.160500	1.691477
4.161000	1.691796
4.161500	1.693070
4.162000	1.693388
4.162500	1.694662
4.163000	1.695299
4.163500	1.695618
4.164000	1.694662
4.164500	1.693707
4.165000	1.693707
4.165500	1.694981
4.166000	1.695937
4.166500	1.696892
4.167000	1.695937
4.167500	1.694344
4.168000	1.694662
4.168500	1.693707
4.169000	1.693070
4.169500	1.693707
4.170000	1.693070
4.170500	1.694662
4.171000	1.694662
4.171500	1.693707
4.172000	1.691158
4.172500	1.691477
4.173000	1.692433
4.173500	1.693707
4.174000	1.693707
4.174500	1.694662
4.175000	1.694981
4.175500	1.694662
4.176000	1.694344
4.176500	1.694025
4.177000	1.693707
4.177500	1.694981
4.178000	1.695937
4.178500	1.696892
4.179000	1.694662
4.179500	1.694344
4.180000	1.693707
4.180500	1.693070
4.181000	1.693070
4.181500	1.693070
4.182000	1.694662
4.182500	1.694344
4.183000	1.694662
4.183500	1.692751
4.184000	1.691796
4.184500	1.691796
4.185000	1.693388
4.185500	1.694344
4.186000	1.694344
4.186500	1.694662
4.187000	1.694981
4.187500	1.694981
4.188000	1.694025
4.188500	1.693388
4.189000	1.694025
4.189500	1.694981
4.190000	1.696255
4.190500	1.695937
4.191000	1.694662
4.191500	1.694025
4.192000	1.693070
4.192500	1.694025
4.193000	1.693388
4.193500	1.694025
4.194000	1.694662
4.194500	1.694662
4.195000	1.693707
4.195500	1.692433
4.196000	1.692751
4.196500	1.692751
4.197000	1.694344
4.197500	1.694981
4.198000	1.694981
4.198500	1.694981
4.199000	1.694662
4.199500	1.694025
4.200000	1.693707
4.200500	1.694662
4.201000	1.695299
4.201500	1.697211
4.202000	1.696574
4.202500	1.695299
4.203000	1.694662
4.203500	1.693070
4.204000	1.693707
4.204500	1.693388
4.205000	1.693707
4.205500	1.694662
4.206000	1.694981
4.206500	1.694662
4.207000	1.691796
4.207500	1.691796
4.208000	1.693070
4.208500	1.693388
4.209000	1.694662
4.209500	1.694344
4.210000	1.694981
4.210500	1.694344
4.211000	1.694662
4.211500	1.694025
4.212000	1.694662
4.212500	1.694344
4.213000	1.696892
4.213500	1.696892
4.214000	1.695618
4.214500	1.694662
4.215000	1.694662
4.215500	1.693707
4.216000	1.693707
4.216500	1.694025
4.217000	1.694662
4.217500	1.694662
4.218000	1.694025
4.218500	1.692433
4.219000	1.691796
4.219500	1.693070
4.220000	1.693707
4.220500	1.694662
4.221000	1.694981
4.221500	1.695937
4.222000	1.694981
4.222500	1.694662
4.223000	1.694025
4.223500	1.693070
4.224000	1.694981
4.224500	1.696255
4.225000	1.696892
4.225500	1.695618
4.226000	1.694025
4.226500	1.694344
4.227000	1.694025
4.227500	1.693707
4.228000	1.693388
4.228500	1.694025
4.229000	1.694662
4.229500	1.694344
4.230000	1.693388
4.230500	1.692114
4.231000	1.692433
4.231500	1.693070
4.232000	1.694662
4.232500	1.694344
4.233000	1.694981
4.233500	1.694981
4.234000	1.695299
4.234500	1.694344
4.235000	1.693070
4.235500	1.694662
4.236000	1.696574
4.236500	1.696574
4.237000	1.695937
4.237500	1.694662
4.238000	1.693707
4.238500	1.694025
4.239000	1.693388
4.239500	1.694344
4.240000	1.694662
4.240500	1.694981
4.241000	1.694662
4.241500	1.693070
4.242000	1.691796
4.242500	1.691796
4.243000	1.693070
4.243500	1.693707
4.244000	1.695299
4.244500	1.695618
4.245000	1.695299
4.245500	1.695299
4.246000	1.694662
4.246500	1.693707
4.247000	1.694662
4.247500	1.695937
4.248000	1.697211
4.248500	1.696255
4.249000	1.694344
4.249500	1.694025
4.250000	1.694344
4.250500	1.693070
4.251000	1.692751
4.251500	1.694981
4.252000	1.694981
4.252500	1.694025
4.253000	1.693388
4.253500	1.691796
4.254000	1.691796
4.254500	1.692751
4.255000	1.693388
4.255500	1.694662
4.256000	1.694662
4.256500	1.694662
4.257000	1.694981
4.257500	1.694025
4.258000	1.694344
4.258500	1.693707
4.259000	1.695937
4.259500	1.695937
4.260000	1.696255
4.260500	1.695618
4.261000	1.694025
4.261500	1.693707
4.262000	1.694025
4.262500	1.694025
4.263000	1.694344
4.263500	1.695299
4.264000	1.694662
4.264500	1.694344
4.265000	1.691796
4.265500	1.692114
4.266000	1.692751
4.266500	1.693707
4.267000	1.694662
4.267500	1.695299
4.268000	1.694981
4.268500	1.695299
4.269000	1.693388
4.269500	1.693388
4.270000	1.694662
4.270500	1.695299
4.271000	1.697529
4.271500	1.696892
4.272000	1.695299
4.272500	1.694662
4.273000	1.693707
4.273500	1.694025
4.274000	1.694344
4.274500	1.694025
4.275000	1.694662
4.275500	1.694981
4.276000	1.693707
4.276500	1.690840
4.277000	1.692114
4.277500	1.692433
4.278000	1.694025
4.278500	1.694025
4.279000	1.694344
4.279500	1.694981
4.280000	1.694025
4.280500	1.693388
4.281000	1.692751
4.281500	1.693707
4.282000	1.695618
4.282500	1.695937
4.283000	1.695299
4.283500	1.694662
4.284000	1.693070
4.284500	1.693707
4.285000	1.692751
4.285500	1.693388
4.286000	1.693707
4.286500	1.694981
4.287000	1.694344
4.287500	1.692751
4.288000	1.691477
4.288500	1.691477
4.289000	1.692433
4.289500	1.693388
4.290000	1.694344
4.290500	1.694344
4.291000	1.694981
4.291500	1.694662
4.292000	1.693707
4.292500	1.693388
4.293000	1.694025
4.293500	1.694662
4.294000	1.696255
4.294500	1.695618
4.295000	1.694981
4.295500	1.694662
4.296000	1.693707
4.296500	1.693388
4.297000	1.693070
4.297500	1.693388
4.298000	1.694344
4.298500	1.694025
4.299000	1.693707
4.299500	1.692433
4.300000	1.692114
4.300500	1.691158
4.301000	1.692751
4.301500	1.693707
4.302000	1.694662
4.302500	1.694344
4.303000	1.694662
4.303500	1.694662
4.304000	1.693388
4.304500	1.693388
4.305000	1.694981
4.305500	1.696255
4.306000	1.696892
4.306500	1.695937
4.307000	1.694662
4.307500	1.694025
4.308000	1.694025
4.308500	1.693388
4.309000	1.693707
4.309500	1.694662
4.310000	1.694981
4.310500	1.694662
4.311000	1.693388
4.311500	1.692114
4.312000	1.691477
4.312500	1.693388
4.313000	1.694662
4.313500	1.694025
4.314000	1.694662
4.314500	1.695299
4.315000	1.694981
4.315500	1.693707
4.316000	1.694662
4.316500	1.695299
4.317000	1.695937
4.317500	1.696574
4.318000	1.697211
4.318500	1.695937
4.319000	1.694981
4.319500	1.693388
4.320000	1.693388
4.320500	1.694344
4.321000	1.695618
4.321500	1.695299
4.322000	1.694981
4.322500	1.693707
4.323000	1.692751
4.323500	1.691796
4.324000	1.692433
4.324500	1.694025
4.325000	1.694662
4.325500	1.694662
4.326000	1.695299
4.326500	1.694662
4.327000	1.694025
4.327500	1.694662
4.328000	1.694981
4.328500	1.695937
4.329000	1.697211
4.329500	1.696255
4.330000	1.695299
4.330500	1.694344
4.331000	1.694025
4.331500	1.693388
4.332000	1.693388
4.332500	1.693707
4.333000	1.694981
4.333500	1.694981
4.334000	1.694344
4.334500	1.692114
4.335000	1.692751
4.335500	1.692751
4.336000	1.693707
4.336500	1.694662
4.337000	1.694981
4.337500	1.695299
4.338000	1.694981
4.338500	1.694025
4.339000	1.694025
4.339500	1.694025
4.340000	1.694344
4.340500	1.696574
4.341000	1.696255
4.341500	1.696255
4.342000	1.694981
4.342500	1.694025
4.343000	1.694344
4.343500	1.693388
4.344000	1.693388
4.344500	1.694344
4.345000	1.694981
4.345500	1.694344
4.346000	1.692751
4.346500	1.691796
4.347000	1.691158
4.347500	1.693070
4.348000	1.693707
4.348500	1.694344
4.349000	1.694981
4.349500	1.694662
4.350000	1.694981
4.350500	1.694025
4.351000	1.693388
4.351500	1.694662
4.352000	1.695937
4.352500	1.697529
4.353000	1.695299
4.353500	1.695299
4.354000	1.694344
4.354500	1.693388
4.355000	1.693388
4.355500	1.693707
4.356000	1.694662
4.356500	1.693707
4.357000	1.694025
4.357500	1.693707
4.358000	1.691796
4.358500	1.690840
4.359000	1.692433
4.359500	1.693707
4.360000	1.694025
4.360500	1.694662
4.361000	1.694981
4.361500	1.694344
4.362000	1.694025
4.362500	1.693388
4.363000	1.693388
4.363500	1.694981
4.364000	1.695299
4.364500	1.696255
4.365000	1.694344
4.365500	1.694025
4.366000	1.693388
4.366500	1.694344
4.367000	1.692751
4.367500	1.693388
4.368000	1.693707
4.368500	1.694344
4.369000	1.693070
4.369500	1.691796
4.370000	1.691158
4.370500	1.692433
4.371000	1.693388
4.371500	1.694981
4.372000	1.694662
4.372500	1.694344
4.373000	1.694662
4.373500	1.694025
4.374000	1.693388
4.374500	1.694025
4.375000	1.694981
4.375500	1.695618
4.376000	1.696255
4.376500	1.695299
4.377000	1.694981
4.377500	1.693388
4.378000	1.693707
4.378500	1.693388
4.379000	1.693707
4.379500	1.694025
4.380000	1.694344
4.380500	1.694025
4.381000	1.691796
4.381500	1.691158
4.382000	1.692114
4.382500	1.692751
4.383000	1.693707
4.383500	1.694344
4.384000	1.694981
4.384500	1.694344
4.385000	1.694025
4.385500	1.693388
4.386000	1.693707
4.386500	1.694344
4.387000	1.696574
4.387500	1.695299
4.388000	1.695937
4.388500	1.694981
4.389000	1.693707
4.389500	1.693388
4.390000	1.694344
4.390500	1.693707
4.391000	1.694344
4.391500	1.694662
4.392000	1.694344
4.392500	1.693388
4.393000	1.692433
4.393500	1.692114
4.394000	1.693070
4.394500	1.694025
4.395000	1.694662
4.395500	1.694981
4.396000	1.695299
4.396500	1.694662
4.397000	1.694344
4.397500	1.693388
4.398000	1.694344
4.398500	1.695299
4.399000	1.696574
4.399500	1.696255
4.400000	1.694981
4.400500	1.694662
4.401000	1.693070
4.401500	1.693388
4.402000	1.693707
4.402500	1.694344
4.403000	1.694344
4.403500	1.694662
4.404000	1.693388
4.404500	1.692114
4.405000	1.692433
4.405500	1.692433
4.406000	1.693388
4.406500	1.694981
4.407000	1.694662
4.407500	1.694981
4.408000	1.694981
4.408500	1.694025
4.409000	1.694025
4.409500	1.694662
4.410000	1.695618
4.410500	1.696255
4.411000	1.696892
4.411500	1.695618
4.412000	1.694981
4.412500	1.694025
4.413000	1.693388
4.413500	1.693707
4.414000	1.694662
4.414500	1.694662
4.415000	1.696574
4.415500	1.694981
4.416000	1.692433
4.416500	1.692751
4.417000	1.692433
4.417500	1.694025
4.418000	1.694344
4.418500	1.694662
4.419000	1.695937
4.419500	1.695299
4.420000	1.694662
4.420500	1.694662
4.421000	1.694662
4.421500	1.695618
4.422000	1.696574
4.422500	1.697211
4.423000	1.695937
4.423500	1.694981
4.424000	1.693707
4.424500	1.694025
4.425000	1.694344
4.425500	1.694662
4.426000	1.694981
4.426500	1.695618
4.427000	1.694981
4.427500	1.694025
4.428000	1.692433
4.428500	1.693070
4.429000	1.693070
4.429500	1.694344
4.430000	1.694981
4.430500	1.695618
4.431000	1.694662
4.431500	1.694344
4.432000	1.694662
4.432500	1.693707
4.433000	1.694344
4.433500	1.695937
4.434000	1.697848
4.434500	1.696892
4.435000	1.695618
4.435500	1.694662
4.436000	1.693070
4.436500	1.693070
4.437000	1.693707
4.437500	1.694344
4.438000	1.695299
4.438500	1.695299
4.439000	1.694025
4.439500	1.692751
4.440000	1.692751
4.440500	1.692751
4.441000	1.694662
4.441500	1.694662
4.442000	1.695299
4.442500	1.695618
4.443000	1.695937
4.443500	1.694662
4.444000	1.694025
4.444500	1.694344
4.445000	1.696574
4.445500	1.697529
4.446000	1.696892
4.446500	1.695618
4.447000	1.695299
4.447500	1.693707
4.448000	1.693388
4.448500	1.694662
4.449000	1.694344
4.449500	1.695299
4.450000	1.695299
4.450500	1.694344
4.451000	1.693070
4.451500	1.692114
4.452000	1.693388
4.452500	1.694025
4.453000	1.695299
4.453500	1.695937
4.454000	1.694981
4.454500	1.694981
4.455000	1.694981
4.455500	1.694662
4.456000	1.694662
4.456500	1.694662
4.457000	1.695937
4.457500	1.697211
4.458000	1.696255
4.458500	1.694981
4.459000	1.694344
4.459500	1.693707
4.460000	1.693388
4.460500	1.694025
4.461000	1.694662
4.461500	1.695618
4.462000	1.694662
4.462500	1.693707
4.463000	1.691796
4.463500	1.692433
4.464000	1.694344
4.464500	1.694662
4.465000	1.694662
4.465500	1.696574
4.466000	1.694981
4.466500	1.694981
4.467000	1.694662
4.467500	1.694025
4.468000	1.695299
4.468500	1.697211
4.469000	1.697211
4.469500	1.695618
4.470000	1.694662
4.470500	1.694025
4.471000	1.694344
4.471500	1.694344
4.472000	1.694344
4.472500	1.694344
4.473000	1.694662
4.473500	1.694662
4.474000	1.693388
4.474500	1.691796
4.475000	1.692433
4.475500	1.693070
4.476000	1.694662
4.476500	1.694662
4.477000	1.694981
4.477500	1.695618
4.478000	1.694662
4.478500	1.694344
4.479000	1.693388
4.479500	1.694662
4.480000	1.696574
4.480500	1.696574
4.481000	1.695937
4.481500	1.694344
4.482000	1.694025
4.482500	1.693070
4.483000	1.693707
4.483500	1.693707
4.484000	1.694662
4.484500	1.694662
4.485000	1.694025
4.485500	1.693070
4.486000	1.692433
4.486500	1.692433
4.487000	1.693388
4.487500	1.694344
4.488000	1.694981
4.488500	1.695618
4.489000	1.694981
4.489500	1.694344
4.490000	1.694344
4.490500	1.693707
4.491000	1.695618
4.491500	1.695299
4.492000	1.696574
4.492500	1.696574
4.493000	1.694662
4.493500	1.694025
4.494000	1.693070
4.494500	1.693070
4.495000	1.692751
4.495500	1.694344
4.496000	1.694662
4.496500	1.694025
4.497000	1.693070
4.497500	1.691796
4.498000	1.691158
4.498500	1.693070
4.499000	1.694025
4.499500	1.694344
4.500000	1.695299
4.500500	1.694344
4.501000	1.694344
4.501500	1.694662
4.502000	1.693388
4.502500	1.694025
4.503000	1.694344
4.503500	1.695618
4.504000	1.696255
4.504500	1.694344
4.505000	1.694025
4.505500	1.693707
4.506000	1.692751
4.506500	1.692433
4.507000	1.694025
4.507500	1.694662
4.508000	1.694025
4.508500	1.693070
4.509000	1.692114
4.509500	1.691796
4.510000	1.692433
4.510500	1.693070
4.511000	1.694344
4.511500	1.694662
4.512000	1.694981
4.512500	1.694344
4.513000	1.693707
4.513500	1.693388
4.514000	1.693388
4.514500	1.694981
4.515000	1.695618
4.515500	1.696255
4.516000	1.695618
4.516500	1.693707
4.517000	1.693070
4.517500	1.692751
4.518000	1.692751
4.518500	1.693070
4.519000	1.693388
4.519500	1.694662
4.520000	1.693070
4.520500	1.691477
4.521000	1.690840
4.521500	1.691158
4.522000	1.693388
4.522500	1.693707
4.523000	1.694981
4.523500	1.693707
4.524000	1.694981
4.524500	1.693388
4.525000	1.693707
4.525500	1.693388
4.526000	1.694662
4.526500	1.695299
4.527000	1.696574
4.527500	1.694662
4.528000	1.694981
4.528500	1.694662
4.529000	1.692751
4.529500	1.693388
4.530000	1.693388
4.530500	1.694344
4.531000	1.694025
4.531500	1.694344
4.532000	1.692114
4.532500	1.691477
4.533000	1.691796
4.533500	1.693707
4.534000	1.694662
4.534500	1.694344
4.535000	1.694662
4.535500	1.694981
4.536000	1.694662
4.536500	1.694025
4.537000	1.694344
4.537500	1.694662
4.538000	1.696255
4.538500	1.696892
4.539000	1.695937
4.539500	1.695299
4.540000	1.694025
4.540500	1.693707
4.541000	1.693070
4.541500	1.693388
4.542000	1.694662
4.542500	1.694344
4.543000	1.694662
4.543500	1.693070
4.544000	1.691477
4.544500	1.692114
4.545000	1.693707
4.545500	1.694344
4.546000	1.695299
4.546500	1.694662
4.547000	1.694662
4.547500	1.694344
4.548000	1.694344
4.548500	1.694025
4.549000	1.695618
4.549500	1.696574
4.550000	1.696892
4.550500	1.695299
4.551000	1.694662
4.551500	1.694344
4.552000	1.692751
4.552500	1.694344
4.553000	1.694981
4.553500	1.694662
4.554000	1.694981
4.554500	1.694344
4.555000	1.692751
4.555500	1.692114
4.556000	1.692433
4.556500	1.694344
4.557000	1.694025
4.557500	1.695299
4.558000	1.695299
4.558500	1.694662
4.559000	1.694981
4.559500	1.694344
4.560000	1.694662
4.560500	1.695618
4.561000	1.696574
4.561500	1.697211
4.562000	1.696255
4.562500	1.694662
4.563000	1.694025
4.563500	1.693707
4.564000	1.694025
4.564500	1.694025
4.565000	1.694981
4.565500	1.694981
4.566000	1.694344
4.566500	1.692751
4.567000	1.692433
4.567500	1.693070
4.568000	1.694025
4.568500	1.694662
4.569000	1.695618
4.569500	1.695937
4.570000	1.694662
4.570500	1.693707
4.571000	1.693707
4.571500	1.694025
4.572000	1.695937
4.572500	1.695299
4.573000	1.696892
4.573500	1.695618
4.574000	1.694662
4.574500	1.694025
4.575000	1.694025
4.575500	1.693388
4.576000	1.694344
4.576500	1.694344
4.577000	1.694981
4.577500	1.694662
4.578000	1.693070
4.578500	1.691796
4.579000	1.692114
4.579500	1.693707
4.580000	1.694025
4.580500	1.694981
4.581000	1.694662
4.581500	1.694981
4.582000	1.694981
4.582500	1.694025
4.583000	1.693707
4.583500	1.694662
4.584000	1.695618
4.584500	1.696892
4.585000	1.696255
4.585500	1.694662
4.586000	1.694344
4.586500	1.693707
4.587000	1.693070
4.587500	1.692751
4.588000	1.694662
4.588500	1.694025
4.589000	1.694025
4.589500	1.692751
4.590000	1.692114
4.590500	1.692433
4.591000	1.692433
4.591500	1.693388
4.592000	1.694025
4.592500	1.694025
4.593000	1.694344
4.593500	1.694025
4.594000	1.693707
4.594500	1.694025
4.595000	1.694981
4.595500	1.695299
4.596000	1.696892
4.596500	1.695937
4.597000	1.694662
4.597500	1.693707
4.598000	1.694025
4.598500	1.692751
4.599000	1.692751
4.599500	1.693388
4.600000	1.694025
4.600500	1.694344
4.601000	1.691477
4.601500	1.691158
4.602000	1.690521
4.602500	1.691477
4.603000	1.692751
4.603500	1.693388
4.604000	1.694344
4.604500	1.694344
4.605000	1.693388
4.605500	1.692751
4.606000	1.692433
4.606500	1.694025
4.607000	1.695299
4.607500	1.694981
4.608000	1.694662
4.608500	1.694344
4.609000	1.693707
4.609500	1.693388
4.610000	1.692114
4.610500	1.692751
4.611000	1.693070
4.611500	1.694344
4.612000	1.692751
4.612500	1.692114
4.613000	1.690203
4.613500	1.689884
4.614000	1.691796
4.614500	1.692433
4.615000	1.693070
4.615500	1.693388
4.616000	1.694344
4.616500	1.692751
4.617000	1.692751
4.617500	1.692751
4.618000	1.693388
4.618500	1.694662
4.619000	1.695937
4.619500	1.694981
4.620000	1.693388
4.620500	1.693388
4.621000	1.692433
4.621500	1.692114
4.622000	1.692433
4.622500	1.693388
4.623000	1.693070
4.623500	1.693388
4.624000	1.691796
4.624500	1.690203
4.625000	1.690521
4.625500	1.692751
4.626000	1.693707
4.626500	1.693388
4.627000	1.694344
4.627500	1.693388
4.628000	1.693070
4.628500	1.692751
4.629000	1.692751
4.629500	1.694025
4.630000	1.695618
4.630500	1.695299
4.631000	1.694662
4.631500	1.693388
4.632000	1.692751
4.632500	1.692751
4.633000	1.692114
4.633500	1.693070
4.634000	1.694025
4.634500	1.694025
4.635000	1.693388
4.635500	1.692114
4.636000	1.690521
4.636500	1.691158
4.637000	1.691796
4.637500	1.692751
4.638000	1.694344
4.638500	1.693707
4.639000	1.694025
4.639500	1.694025
4.640000	1.693070
4.640500	1.693070
4.641000	1.693070
4.641500	1.694662
4.642000	1.695937
4.642500	1.695618
4.643000	1.694662
4.643500	1.694025
4.644000	1.692751
4.644500	1.693070
4.645000	1.692751
4.645500	1.693388
4.646000	1.693707
4.646500	1.693707
4.647000	1.693070
4.647500	1.691477
4.648000	1.691158
4.648500	1.691477
4.649000	1.692751
4.649500	1.694344
4.650000	1.694662
4.650500	1.694344
4.651000	1.694025
4.651500	1.694025
4.652000	1.693388
4.652500	1.693707
4.653000	1.694344
4.653500	1.696255
4.654000	1.695937
4.654500	1.695618
4.655000	1.694662
4.655500	1.693707
4.656000	1.692751
4.656500	1.693070
4.657000	1.693070
4.657500	1.694662
4.658000	1.694025
4.658500	1.693707
4.659000	1.693070
4.659500	1.691158
4.660000	1.691158
4.660500	1.693070
4.661000	1.694025
4.661500	1.694662
4.662000	1.694344
4.662500	1.694662
4.663000	1.694662
4.663500	1.693388
4.664000	1.693388
4.664500	1.694981
4.665000	1.695299
4.665500	1.696255
4.666000	1.695937
4.666500	1.694662
4.667000	1.694344
4.667500	1.694025
4.668000	1.693707
4.668500	1.693707
4.669000	1.694981
4.669500	1.694981
4.670000	1.693707
4.670500	1.693070
4.671000	1.692433
4.671500	1.691796
4.672000	1.692751
4.672500	1.692751
4.673000	1.694662
4.673500	1.694662
4.674000	1.694662
4.674500	1.694662
4.675000	1.694025
4.675500	1.694025
4.676000	1.694344
4.676500	1.695299
4.677000	1.696255
4.677500	1.696255
4.678000	1.694981
4.678500	1.693388
4.679000	1.694662
4.679500	1.692751
4.680000	1.694025
4.680500	1.693707
4.681000	1.694662
4.681500	1.694662
4.682000	1.693388
4.682500	1.691796
4.683000	1.690840
4.683500	1.692114
4.684000	1.693388
4.684500	1.694025
4.685000	1.694025
4.685500	1.694344
4.686000	1.694662
4.686500	1.693707
4.687000	1.693070
4.687500	1.692751
4.688000	1.695299
4.688500	1.695937
4.689000	1.696892
4.689500	1.694981
4.690000	1.694025
4.690500	1.693707
4.691000	1.693070
4.691500	1.693388
4.692000	1.693388
4.692500	1.694662
4.693000	1.694662
4.693500	1.693707
4.694000	1.692114
4.694500	1.692114
4.695000	1.691477
4.695500	1.691796
4.696000	1.693070
4.696500	1.693707
4.697000	1.694344
4.697500	1.694662
4.698000	1.694344
4.698500	1.694025
4.699000	1.694025
4.699500	1.694344
4.700000	1.694662
4.700500	1.696892
4.701000	1.696255
4.701500	1.694344
4.702000	1.694344
4.702500	1.693388
4.703000	1.693388
4.703500	1.693707
4.704000	1.693707
4.704500	1.694981
4.705000	1.694662
4.705500	1.694344
4.706000	1.691796
4.706500	1.690840
4.707000	1.690840
4.707500	1.692751
4.708000	1.693707
4.708500	1.694025
4.709000	1.694981
4.709500	1.694025
4.710000	1.694344
4.710500	1.693388
4.711000	1.694662
4.711500	1.694025
4.712000	1.696255
4.712500	1.696892
4.713000	1.695937
4.713500	1.694981
4.714000	1.693388
4.714500	1.693707
4.715000	1.693707
4.715500	1.692751
4.716000	1.693707
4.716500	1.694662
4.717000	1.694662
4.717500	1.692751
4.718000	1.692433
4.718500	1.692114
4.719000	1.691796
4.719500	1.693388
4.720000	1.693707
4.720500	1.694662
4.721000	1.694981
4.721500	1.694025
4.722000	1.694662
4.722500	1.693070
4.723000	1.694981
4.723500	1.694981
4.724000	1.695299
4.724500	1.696892
4.725000	1.695618
4.725500	1.694662
4.726000	1.694344
4.726500	1.693707
4.727000	1.693707
4.727500	1.693070
4.728000	1.693388
4.728500	1.694981
4.729000	1.694025
4.729500	1.692433
4.730000	1.691477
4.730500	1.692114
4.731000	1.692751
4.731500	1.694981
4.732000	1.694025
4.732500	1.694981
4.733000	1.694662
4.733500	1.694344
4.734000	1.693070
4.734500	1.693707
4.735000	1.694344
4.735500	1.695937
4.736000	1.696892
4.736500	1.696255
4.737000	1.694981
4.737500	1.694344
4.738000	1.694344
4.738500	1.692751
4.739000	1.693070
4.739500	1.694025
4.740000	1.694025
4.740500	1.694025
4.741000	1.693070
4.741500	1.691477
4.742000	1.691158
4.742500	1.693388
4.743000	1.693707
4.743500	1.694344
4.744000	1.694344
4.744500	1.694662
4.745000	1.694344
4.745500	1.693707
4.746000	1.694025
4.746500	1.694344
4.747000	1.695618
4.747500	1.695618
4.748000	1.696255
4.748500	1.694662
4.749000	1.694025
4.749500	1.692751
4.750000	1.693388
4.750500	1.693070
4.751000	1.693070
4.751500	1.694025
4.752000	1.694344
4.752500	1.692751
4.753000	1.691477
4.753500	1.691477
4.754000	1.693388
4.754500	1.693388
4.755000	1.693707
4.755500	1.694981
4.756000	1.695618
4.756500	1.694662
4.757000	1.693388
4.757500	1.694025
4.758000	1.693070
4.758500	1.695299
4.759000	1.696892
4.759500	1.696255
4.760000	1.694662
4.760500	1.693707
4.761000	1.693707
4.761500	1.692433
4.762000	1.692751
4.762500	1.693388
4.763000	1.693707
4.763500	1.694662
4.764000	1.693388
4.764500	1.692433
4.765000	1.691796
4.765500	1.692114
4.766000	1.693070
4.766500	1.694344
4.767000	1.694344
4.767500	1.694344
4.768000	1.694981
4.768500	1.694344
4.769000	1.694344
4.769500	1.694344
4.770000	1.694344
4.770500	1.696255
4.771000	1.696574
4.771500	1.695937
4.772000	1.694662
4.772500	1.693707
4.773000	1.692433
4.773500	1.693388
4.774000	1.693070
4.774500	1.694025
4.775000	1.694662
4.775500	1.693388
4.776000	1.692751
4.776500	1.691796
4.777000	1.691477
4.777500	1.694025
4.778000	1.694344
4.778500	1.694981
4.779000	1.694662
4.779500	1.694662
4.780000	1.694981
4.780500	1.693388
4.781000	1.693388
4.781500	1.694662
4.782000	1.697211
4.782500	1.697211
4.783000	1.696255
4.783500	1.694981
4.784000	1.694344
4.784500	1.694025
4.785000	1.693707
4.785500	1.693388
4.786000	1.694344
4.786500	1.694662
4.787000	1.694344
4.787500	1.693070
4.788000	1.691477
4.788500	1.693070
4.789000	1.693707
4.789500	1.694025
4.790000	1.694344
4.790500	1.694981
4.791000	1.694662
4.791500	1.694981
4.792000	1.694662
4.792500	1.693707
4.793000	1.694981
4.793500	1.695937
4.794000	1.697211
4.794500	1.697529
4.795000	1.694662
4.795500	1.694662
4.796000	1.693707
4.796500	1.693388
4.797000	1.694025
4.797500	1.694662
4.798000	1.695299
4.798500	1.694981
4.799000	1.693388
4.799500	1.692114
4.800000	1.691796
4.800500	1.693707
4.801000	1.694662
4.801500	1.694981
4.802000	1.694981
4.802500	1.695299
4.803000	1.695299
4.803500	1.694662
4.804000	1.694344
4.804500	1.694981
4.805000	1.696255
4.805500	1.697848
4.806000	1.697211
4.806500	1.696574
4.807000	1.695299
4.807500	1.693707
4.808000	1.694662
4.808500	1.693707
4.809000	1.694662
4.809500	1.694344
4.810000	1.694662
4.810500	1.693707
4.811000	1.693388
4.811500	1.692114
4.812000	1.693388
4.812500	1.694344
4.813000	1.692433
4.813500	1.695618
4.814000	1.695937
4.814500	1.694662
4.815000	1.694981
4.815500	1.694344
4.816000	1.694662
4.816500	1.696892
4.817000	1.697211
4.817500	1.696892
4.818000	1.695618
4.818500	1.694344
4.819000	1.694344
4.819500	1.693388
4.820000	1.694344
4.820500	1.694344
4.821000	1.694981
4.821500	1.694662
4.822000	1.693707
4.822500	1.692114
4.823000	1.692114
4.823500	1.692751
4.824000	1.694344
4.824500	1.694662
4.825000	1.695937
4.825500	1.695618
4.826000	1.695618
4.826500	1.694344
4.827000	1.694025
4.827500	1.694981
4.828000	1.695618
4.828500	1.697211
4.829000	1.696255
4.829500	1.695618
4.830000	1.694344
4.830500	1.694025
4.831000	1.693707
4.831500	1.693070
4.832000	1.694025
4.832500	1.694981
4.833000	1.694662
4.833500	1.693070
4.834000	1.690840
4.834500	1.691477
4.835000	1.693070
4.835500	1.694344
4.836000	1.694662
4.836500	1.694981
4.837000	1.694981
4.837500	1.695299
4.838000	1.694025
4.838500	1.693388
4.839000	1.694344
4.839500	1.695937
4.840000	1.696574
4.840500	1.696255
4.841000	1.695299
4.841500	1.694344
4.842000	1.694344
4.842500	1.693070
4.843000	1.694344
4.843500	1.693707
4.844000	1.694662
4.844500	1.694025
4.845000	1.693070
4.845500	1.692114
4.846000	1.692433
4.846500	1.693070
4.847000	1.694025
4.847500	1.694662
4.848000	1.694662
4.848500	1.694662
4.849000	1.694344
4.849500	1.694025
4.850000	1.694025
4.850500	1.694025
4.851000	1.695299
4.851500	1.696892
4.852000	1.696255
4.852500	1.694662
4.853000	1.693388
4.853500	1.694025
4.854000	1.692751
4.854500	1.693707
4.855000	1.694344
4.855500	1.694344
4.856000	1.694981
4.856500	1.692114
4.857000	1.692433
4.857500	1.691796
4.858000	1.694025
4.858500	1.693707
4.859000	1.695299
4.859500	1.695618
4.860000	1.695299
4.860500	1.694344
4.861000	1.694025
4.861500	1.694025
4.862000	1.694344
4.862500	1.696255
4.863000	1.696574
4.863500	1.696255
4.864000	1.695299
4.864500	1.694344
4.865000	1.693707
4.865500	1.693707
4.866000	1.693707
4.866500	1.694662
4.867000	1.695299
4.867500	1.694662
4.868000	1.693070
4.868500	1.691796
4.869000	1.692433
4.869500	1.693707
4.870000	1.694662
4.870500	1.694344
4.871000	1.694662
4.871500	1.694662
4.872000	1.694662
4.872500	1.694344
4.873000	1.694662
4.873500	1.694662
4.874000	1.695937
4.874500	1.697211
4.875000	1.695937
4.875500	1.694025
4.876000	1.694025
4.876500	1.694344
4.877000	1.694344
4.877500	1.693707
4.878000	1.694981
4.878500	1.695299
4.879000	1.694662
4.879500	1.692433
4.880000	1.692114
4.880500	1.691158
4.881000	1.692751
4.881500	1.694662
4.882000	1.694981
4.882500	1.695299
4.883000	1.695299
4.883500	1.694025
4.884000	1.694344
4.884500	1.694025
4.885000	1.694344
4.885500	1.695299
4.886000	1.696574
4.886500	1.696255
4.887000	1.694662
4.887500	1.694025
4.888000	1.693388
4.888500	1.693070
4.889000	1.693388
4.889500	1.694662
4.890000	1.694025
4.890500	1.694025
4.891000	1.694344
4.891500	1.691796
4.892000	1.691796
4.892500	1.692433
4.893000	1.694344
4.893500	1.694662
4.894000	1.694981
4.894500	1.694981
4.895000	1.694662
4.895500	1.693388
4.896000	1.693707
4.896500	1.694662
4.897000	1.695618
4.897500	1.696892
4.898000	1.695937
4.898500	1.695299
4.899000	1.694662
4.899500	1.693707
4.900000	1.692751
4.900500	1.693707
4.901000	1.693707
4.901500	1.694662
4.902000	1.694025
4.902500	1.693070
4.903000	1.692114
4.903500	1.691796
4.904000	1.692751
4.904500	1.693388
4.905000	1.694344
4.905500	1.694025
4.906000	1.694344
4.906500	1.694344
4.907000	1.694025
4.907500	1.693707
4.908000	1.694344
4.908500	1.695299
4.909000	1.696892
4.909500	1.696255
4.910000	1.695618
4.910500	1.693707
4.911000	1.693388
4.911500	1.692751
4.912000	1.693070
4.912500	1.693707
4.913000	1.694662
4.913500	1.694344
4.914000	1.692433
4.914500	1.691477
4.915000	1.691796
4.915500	1.692433
4.916000	1.693707
4.916500	1.694662
4.917000	1.694981
4.917500	1.694344
4.918000	1.694344
4.918500	1.693388
4.919000	1.693707
4.919500	1.694025
4.920000	1.696892
4.920500	1.696892
4.921000	1.695937
4.921500	1.694662
4.922000	1.694344
4.922500	1.693388
4.923000	1.693707
4.923500	1.692751
4.924000	1.693707
4.924500	1.694662
4.925000	1.693707
4.925500	1.693070
4.926000	1.692114
4.926500	1.692114
4.927000	1.693070
4.927500	1.693070
4.928000	1.694344
4.928500	1.694981
4.929000	1.694662
4.929500	1.694344
4.930000	1.694025
4.930500	1.693388
4.931000	1.694662
4.931500	1.695299
4.932000	1.696892
4.932500	1.694981
4.933000	1.694344
4.933500	1.693707
4.934000	1.693388
4.934500	1.693388
4.935000	1.693707
4.935500	1.693707
4.936000	1.694344
4.936500	1.693388
4.937000	1.692114
4.937500	1.692114
4.938000	1.691477
4.938500	1.693070
4.939000	1.694662
4.939500	1.694344
4.940000	1.694981
4.940500	1.694662
4.941000	1.693388
4.941500	1.693707
4.942000	1.692433
4.942500	1.694662
4.943000	1.695299
4.943500	1.695937
4.944000	1.695618
4.944500	1.694025
4.945000	1.694025
4.945500	1.693707
4.946000	1.692751
4.946500	1.693070
4.947000	1.694981
4.947500	1.694344
4.948000	1.694025
4.948500	1.692751
4.949000	1.690203
4.949500	1.691158
4.950000	1.693070
4.950500	1.694344
4.951000	1.694025
4.951500	1.693707
4.952000	1.694662
4.952500	1.694344
4.953000	1.694344
4.953500	1.693388
4.954000	1.695937
4.954500	1.696255
4.955000	1.695937
4.955500	1.695299
4.956000	1.694662
4.956500	1.693388
4.957000	1.693388
4.957500	1.693707
4.958000	1.693707
4.958500	1.694344
4.959000	1.693707
4.959500	1.693707
4.960000	1.692114
4.960500	1.691796
4.961000	1.691796
4.961500	1.693707
4.962000	1.694344
4.962500	1.694662
4.963000	1.694662
4.963500	1.694344
4.964000	1.694025
4.964500	1.693707
4.965000	1.694662
4.965500	1.695937
4.966000	1.697529
4.966500	1.696892
4.967000	1.695618
4.967500	1.694662
4.968000	1.694344
4.968500	1.693707
4.969000	1.693388
4.969500	1.694025
4.970000	1.694662
4.970500	1.695299
4.971000	1.693388
4.971500	1.693070
4.972000	1.691158
4.972500	1.691796
4.973000	1.694662
4.973500	1.694025
4.974000	1.694662
4.974500	1.694981
4.975000	1.694344
4.975500	1.694662
4.976000	1.694344
4.976500	1.694025
4.977000	1.695299
4.977500	1.696574
4.978000	1.696255
4.978500	1.695937
4.979000	1.694344
4.979500	1.694981
4.980000	1.693707
4.980500	1.694344
4.981000	1.693707
4.981500	1.694025
4.982000	1.695299
4.982500	1.694344
4.983000	1.691796
4.983500	1.691796
4.984000	1.692433
4.984500	1.694344
4.985000	1.694981
4.985500	1.695299
4.986000	1.694662
4.986500	1.694981
4.987000	1.693070
4.987500	1.694344
4.988000	1.694344
4.988500	1.695299
4.989000	1.696892
4.989500	1.696255
4.990000	1.694981
4.990500	1.694344
4.991000	1.694025
4.991500	1.693070
4.992000	1.693707
4.992500	1.694662
4.993000	1.694025
4.993500	1.694981
4.994000	1.693388
4.994500	1.692114
4.995000	1.691477
4.995500	1.692114
4.996000	1.694344
4.996500	1.694344
4.997000	1.694981
4.997500	1.694981
4.998000	1.694662
4.998500	1.693070
4.999000	1.693070
4.999500	1.694662

