LabVIEW Measurement	
Writer_Version	2
Reader_Version	2
Separator	Tab
Decimal_Separator	.
Multi_Headings	Yes
X_Columns	One
Time_Pref	Absolute
Operator	labuser
Date	2023/05/22
Time	14:45:47.4232686999997809888
***End_of_Header***	
	
Channels	1	
Samples	10000	
Date	2023/05/22	
Time	14:50:20.9362963999995153461	
Y_Unit_Label	Volts	
X_Dimension	Time	
X0	0.0000000000000000E+0	
Delta_X	0.000500	
***End_of_Header***		
X_Value	Voltage	Comment
0.000000	1.733205
0.000500	1.734480
0.001000	1.734161
0.001500	1.732250
0.002000	1.732250
0.002500	1.731294
0.003000	1.730657
0.003500	1.731613
0.004000	1.731613
0.004500	1.731931
0.005000	1.732250
0.005500	1.730976
0.006000	1.730657
0.006500	1.730020
0.007000	1.729702
0.007500	1.731613
0.008000	1.732250
0.008500	1.732250
0.009000	1.732887
0.009500	1.731931
0.010000	1.732250
0.010500	1.730657
0.011000	1.731931
0.011500	1.732250
0.012000	1.734480
0.012500	1.734480
0.013000	1.734161
0.013500	1.733524
0.014000	1.732250
0.014500	1.731613
0.015000	1.731613
0.015500	1.730976
0.016000	1.732250
0.016500	1.731931
0.017000	1.731613
0.017500	1.731613
0.018000	1.729383
0.018500	1.729383
0.019000	1.730976
0.019500	1.731931
0.020000	1.732568
0.020500	1.732568
0.021000	1.732568
0.021500	1.732250
0.022000	1.731931
0.022500	1.731294
0.023000	1.732250
0.023500	1.733843
0.024000	1.734480
0.024500	1.734480
0.025000	1.733205
0.025500	1.731931
0.026000	1.732250
0.026500	1.730976
0.027000	1.731294
0.027500	1.731931
0.028000	1.732568
0.028500	1.731931
0.029000	1.730976
0.029500	1.729702
0.030000	1.729064
0.030500	1.730020
0.031000	1.730976
0.031500	1.732250
0.032000	1.731931
0.032500	1.732568
0.033000	1.732568
0.033500	1.731931
0.034000	1.731294
0.034500	1.732250
0.035000	1.732887
0.035500	1.734798
0.036000	1.734480
0.036500	1.733205
0.037000	1.731294
0.037500	1.730657
0.038000	1.730976
0.038500	1.730339
0.039000	1.730976
0.039500	1.731613
0.040000	1.731294
0.040500	1.730020
0.041000	1.729702
0.041500	1.728427
0.042000	1.730020
0.042500	1.731931
0.043000	1.731613
0.043500	1.732250
0.044000	1.732568
0.044500	1.732250
0.045000	1.731931
0.045500	1.730976
0.046000	1.732250
0.046500	1.733843
0.047000	1.733843
0.047500	1.733843
0.048000	1.731294
0.048500	1.731294
0.049000	1.730020
0.049500	1.730339
0.050000	1.730657
0.050500	1.731613
0.051000	1.731931
0.051500	1.732568
0.052000	1.730339
0.052500	1.729383
0.053000	1.729383
0.053500	1.731294
0.054000	1.732250
0.054500	1.731931
0.055000	1.732887
0.055500	1.733205
0.056000	1.731931
0.056500	1.731931
0.057000	1.731613
0.057500	1.732250
0.058000	1.733205
0.058500	1.733843
0.059000	1.734161
0.059500	1.733205
0.060000	1.731294
0.060500	1.730976
0.061000	1.730339
0.061500	1.731613
0.062000	1.731613
0.062500	1.731931
0.063000	1.732250
0.063500	1.731294
0.064000	1.729064
0.064500	1.728427
0.065000	1.729383
0.065500	1.731613
0.066000	1.731931
0.066500	1.731931
0.067000	1.732568
0.067500	1.731931
0.068000	1.730976
0.068500	1.731294
0.069000	1.730657
0.069500	1.732250
0.070000	1.733843
0.070500	1.734161
0.071000	1.733205
0.071500	1.731613
0.072000	1.732250
0.072500	1.730976
0.073000	1.731294
0.073500	1.730657
0.074000	1.732887
0.074500	1.733205
0.075000	1.731613
0.075500	1.730020
0.076000	1.729702
0.076500	1.730020
0.077000	1.731294
0.077500	1.731931
0.078000	1.732250
0.078500	1.733205
0.079000	1.732887
0.079500	1.731613
0.080000	1.731294
0.080500	1.731613
0.081000	1.732250
0.081500	1.734480
0.082000	1.734161
0.082500	1.733843
0.083000	1.731931
0.083500	1.731931
0.084000	1.731294
0.084500	1.731294
0.085000	1.731931
0.085500	1.732568
0.086000	1.733205
0.086500	1.731931
0.087000	1.730020
0.087500	1.729383
0.088000	1.729064
0.088500	1.730020
0.089000	1.731294
0.089500	1.731931
0.090000	1.732250
0.090500	1.731613
0.091000	1.731931
0.091500	1.731294
0.092000	1.730339
0.092500	1.732887
0.093000	1.734480
0.093500	1.734480
0.094000	1.733843
0.094500	1.732568
0.095000	1.731294
0.095500	1.730339
0.096000	1.731294
0.096500	1.731613
0.097000	1.732250
0.097500	1.731931
0.098000	1.732250
0.098500	1.730657
0.099000	1.729064
0.099500	1.729383
0.100000	1.730976
0.100500	1.731613
0.101000	1.731931
0.101500	1.732568
0.102000	1.731613
0.102500	1.731294
0.103000	1.731613
0.103500	1.731294
0.104000	1.732887
0.104500	1.734161
0.105000	1.734480
0.105500	1.733205
0.106000	1.731931
0.106500	1.732250
0.107000	1.731294
0.107500	1.730339
0.108000	1.730339
0.108500	1.731613
0.109000	1.732568
0.109500	1.731613
0.110000	1.729702
0.110500	1.728746
0.111000	1.729383
0.111500	1.731294
0.112000	1.731613
0.112500	1.731931
0.113000	1.731931
0.113500	1.732250
0.114000	1.731613
0.114500	1.731613
0.115000	1.731294
0.115500	1.731931
0.116000	1.733843
0.116500	1.734480
0.117000	1.733205
0.117500	1.730657
0.118000	1.730976
0.118500	1.730976
0.119000	1.730339
0.119500	1.731294
0.120000	1.731613
0.120500	1.732250
0.121000	1.731294
0.121500	1.730339
0.122000	1.729064
0.122500	1.729064
0.123000	1.730657
0.123500	1.730976
0.124000	1.732250
0.124500	1.732568
0.125000	1.732250
0.125500	1.730976
0.126000	1.730657
0.126500	1.731294
0.127000	1.732568
0.127500	1.734480
0.128000	1.733843
0.128500	1.733524
0.129000	1.732250
0.129500	1.731294
0.130000	1.730657
0.130500	1.730976
0.131000	1.731294
0.131500	1.731613
0.132000	1.732250
0.132500	1.731613
0.133000	1.730020
0.133500	1.729383
0.134000	1.730020
0.134500	1.730976
0.135000	1.731294
0.135500	1.731931
0.136000	1.732250
0.136500	1.732887
0.137000	1.731931
0.137500	1.731294
0.138000	1.731294
0.138500	1.731613
0.139000	1.733524
0.139500	1.733524
0.140000	1.733524
0.140500	1.732250
0.141000	1.731613
0.141500	1.730976
0.142000	1.730020
0.142500	1.730657
0.143000	1.731294
0.143500	1.732250
0.144000	1.731931
0.144500	1.730976
0.145000	1.729702
0.145500	1.729064
0.146000	1.730020
0.146500	1.731613
0.147000	1.732250
0.147500	1.733205
0.148000	1.732887
0.148500	1.732568
0.149000	1.732250
0.149500	1.731294
0.150000	1.731931
0.150500	1.734161
0.151000	1.734161
0.151500	1.734480
0.152000	1.732887
0.152500	1.732250
0.153000	1.731613
0.153500	1.731931
0.154000	1.730976
0.154500	1.732568
0.155000	1.733205
0.155500	1.732887
0.156000	1.731613
0.156500	1.729383
0.157000	1.729702
0.157500	1.730976
0.158000	1.731931
0.158500	1.732250
0.159000	1.732887
0.159500	1.732568
0.160000	1.732887
0.160500	1.732568
0.161000	1.732568
0.161500	1.732568
0.162000	1.734161
0.162500	1.735117
0.163000	1.735754
0.163500	1.733524
0.164000	1.732568
0.164500	1.731613
0.165000	1.730976
0.165500	1.731613
0.166000	1.732568
0.166500	1.733524
0.167000	1.732887
0.167500	1.731294
0.168000	1.729702
0.168500	1.730657
0.169000	1.730339
0.169500	1.732568
0.170000	1.732887
0.170500	1.733205
0.171000	1.733524
0.171500	1.733205
0.172000	1.732250
0.172500	1.732250
0.173000	1.732887
0.173500	1.733843
0.174000	1.735117
0.174500	1.734798
0.175000	1.733524
0.175500	1.732250
0.176000	1.731613
0.176500	1.731931
0.177000	1.731294
0.177500	1.732250
0.178000	1.732250
0.178500	1.732887
0.179000	1.731931
0.179500	1.730020
0.180000	1.730339
0.180500	1.731294
0.181000	1.732250
0.181500	1.732250
0.182000	1.733205
0.182500	1.732887
0.183000	1.732887
0.183500	1.732887
0.184000	1.731931
0.184500	1.732568
0.185000	1.734161
0.185500	1.735117
0.186000	1.734480
0.186500	1.732568
0.187000	1.731931
0.187500	1.731931
0.188000	1.730657
0.188500	1.731931
0.189000	1.731931
0.189500	1.733205
0.190000	1.732568
0.190500	1.731931
0.191000	1.729702
0.191500	1.730339
0.192000	1.730976
0.192500	1.731613
0.193000	1.732250
0.193500	1.733843
0.194000	1.731931
0.194500	1.731613
0.195000	1.732250
0.195500	1.731294
0.196000	1.732568
0.196500	1.733205
0.197000	1.734161
0.197500	1.734480
0.198000	1.732887
0.198500	1.731931
0.199000	1.731613
0.199500	1.730976
0.200000	1.731294
0.200500	1.732568
0.201000	1.733524
0.201500	1.732250
0.202000	1.730976
0.202500	1.730339
0.203000	1.728427
0.203500	1.730339
0.204000	1.731294
0.204500	1.732568
0.205000	1.732887
0.205500	1.733205
0.206000	1.733843
0.206500	1.732568
0.207000	1.731931
0.207500	1.732250
0.208000	1.733524
0.208500	1.734798
0.209000	1.735117
0.209500	1.733524
0.210000	1.731931
0.210500	1.730657
0.211000	1.731613
0.211500	1.731294
0.212000	1.733205
0.212500	1.733843
0.213000	1.732568
0.213500	1.732250
0.214000	1.730020
0.214500	1.730020
0.215000	1.731294
0.215500	1.732568
0.216000	1.732250
0.216500	1.732887
0.217000	1.733205
0.217500	1.732887
0.218000	1.731931
0.218500	1.732250
0.219000	1.733524
0.219500	1.734480
0.220000	1.736072
0.220500	1.734798
0.221000	1.733205
0.221500	1.732887
0.222000	1.732250
0.222500	1.731931
0.223000	1.731294
0.223500	1.732568
0.224000	1.733205
0.224500	1.733205
0.225000	1.732568
0.225500	1.730339
0.226000	1.730339
0.226500	1.731931
0.227000	1.732568
0.227500	1.733524
0.228000	1.734161
0.228500	1.734161
0.229000	1.732887
0.229500	1.732568
0.230000	1.732568
0.230500	1.733843
0.231000	1.734161
0.231500	1.736072
0.232000	1.734161
0.232500	1.732887
0.233000	1.732887
0.233500	1.731931
0.234000	1.731931
0.234500	1.732568
0.235000	1.732568
0.235500	1.733524
0.236000	1.733524
0.236500	1.731294
0.237000	1.730657
0.237500	1.730657
0.238000	1.730976
0.238500	1.731931
0.239000	1.733205
0.239500	1.733843
0.240000	1.733843
0.240500	1.733843
0.241000	1.732250
0.241500	1.731931
0.242000	1.732568
0.242500	1.734161
0.243000	1.735435
0.243500	1.735117
0.244000	1.733524
0.244500	1.733205
0.245000	1.732250
0.245500	1.731613
0.246000	1.731931
0.246500	1.732568
0.247000	1.732568
0.247500	1.732568
0.248000	1.732568
0.248500	1.730339
0.249000	1.730339
0.249500	1.731613
0.250000	1.731931
0.250500	1.732250
0.251000	1.732887
0.251500	1.733524
0.252000	1.732887
0.252500	1.732568
0.253000	1.731613
0.253500	1.731931
0.254000	1.734480
0.254500	1.735435
0.255000	1.734161
0.255500	1.733524
0.256000	1.731613
0.256500	1.732568
0.257000	1.731931
0.257500	1.731613
0.258000	1.732250
0.258500	1.732887
0.259000	1.732568
0.259500	1.731931
0.260000	1.730657
0.260500	1.729702
0.261000	1.730339
0.261500	1.731613
0.262000	1.732250
0.262500	1.733205
0.263000	1.732887
0.263500	1.732887
0.264000	1.732250
0.264500	1.731931
0.265000	1.733524
0.265500	1.734480
0.266000	1.735117
0.266500	1.734161
0.267000	1.733524
0.267500	1.731931
0.268000	1.731931
0.268500	1.732250
0.269000	1.732250
0.269500	1.732250
0.270000	1.732568
0.270500	1.733205
0.271000	1.731613
0.271500	1.731294
0.272000	1.730339
0.272500	1.731613
0.273000	1.731613
0.273500	1.731931
0.274000	1.734161
0.274500	1.733205
0.275000	1.732568
0.275500	1.731931
0.276000	1.732250
0.276500	1.732568
0.277000	1.733843
0.277500	1.734798
0.278000	1.733524
0.278500	1.733843
0.279000	1.732887
0.279500	1.731294
0.280000	1.730976
0.280500	1.730976
0.281000	1.731931
0.281500	1.732568
0.282000	1.732250
0.282500	1.731294
0.283000	1.730339
0.283500	1.729702
0.284000	1.730339
0.284500	1.731613
0.285000	1.731931
0.285500	1.733205
0.286000	1.733524
0.286500	1.732568
0.287000	1.731931
0.287500	1.731294
0.288000	1.731931
0.288500	1.732887
0.289000	1.734161
0.289500	1.733524
0.290000	1.733205
0.290500	1.731613
0.291000	1.731931
0.291500	1.730976
0.292000	1.731931
0.292500	1.731613
0.293000	1.731931
0.293500	1.731931
0.294000	1.731294
0.294500	1.730339
0.295000	1.729702
0.295500	1.729064
0.296000	1.730976
0.296500	1.731613
0.297000	1.732250
0.297500	1.732887
0.298000	1.732250
0.298500	1.731931
0.299000	1.730976
0.299500	1.730976
0.300000	1.732250
0.300500	1.734161
0.301000	1.733524
0.301500	1.732250
0.302000	1.731931
0.302500	1.731613
0.303000	1.730020
0.303500	1.730976
0.304000	1.730976
0.304500	1.731613
0.305000	1.732887
0.305500	1.731613
0.306000	1.729383
0.306500	1.729702
0.307000	1.730020
0.307500	1.730657
0.308000	1.731294
0.308500	1.732250
0.309000	1.733205
0.309500	1.732568
0.310000	1.730657
0.310500	1.731294
0.311000	1.730976
0.311500	1.733843
0.312000	1.735117
0.312500	1.734161
0.313000	1.733205
0.313500	1.731931
0.314000	1.731931
0.314500	1.730976
0.315000	1.731931
0.315500	1.731613
0.316000	1.731613
0.316500	1.732568
0.317000	1.730657
0.317500	1.730339
0.318000	1.729702
0.318500	1.730020
0.319000	1.731294
0.319500	1.732250
0.320000	1.733205
0.320500	1.733524
0.321000	1.731613
0.321500	1.730976
0.322000	1.730976
0.322500	1.732250
0.323000	1.734161
0.323500	1.734480
0.324000	1.735117
0.324500	1.732568
0.325000	1.732250
0.325500	1.731613
0.326000	1.730976
0.326500	1.730657
0.327000	1.731294
0.327500	1.731294
0.328000	1.731294
0.328500	1.730339
0.329000	1.729702
0.329500	1.729064
0.330000	1.730976
0.330500	1.731613
0.331000	1.732568
0.331500	1.732887
0.332000	1.732568
0.332500	1.731931
0.333000	1.731931
0.333500	1.731294
0.334000	1.731931
0.334500	1.733524
0.335000	1.735117
0.335500	1.734480
0.336000	1.733843
0.336500	1.731931
0.337000	1.731613
0.337500	1.731294
0.338000	1.731931
0.338500	1.731931
0.339000	1.731931
0.339500	1.731931
0.340000	1.732250
0.340500	1.729702
0.341000	1.729383
0.341500	1.730339
0.342000	1.731613
0.342500	1.732250
0.343000	1.733205
0.343500	1.733524
0.344000	1.732568
0.344500	1.733205
0.345000	1.731931
0.345500	1.732568
0.346000	1.732887
0.346500	1.735117
0.347000	1.734161
0.347500	1.732887
0.348000	1.732250
0.348500	1.731294
0.349000	1.731294
0.349500	1.731294
0.350000	1.732250
0.350500	1.732250
0.351000	1.733205
0.351500	1.732250
0.352000	1.730020
0.352500	1.729702
0.353000	1.730020
0.353500	1.731294
0.354000	1.732568
0.354500	1.733205
0.355000	1.732887
0.355500	1.732250
0.356000	1.731294
0.356500	1.731294
0.357000	1.732568
0.357500	1.732887
0.358000	1.735117
0.358500	1.734798
0.359000	1.732568
0.359500	1.731613
0.360000	1.731294
0.360500	1.730339
0.361000	1.730976
0.361500	1.731931
0.362000	1.732250
0.362500	1.732568
0.363000	1.731294
0.363500	1.730339
0.364000	1.729383
0.364500	1.730339
0.365000	1.731294
0.365500	1.732568
0.366000	1.732250
0.366500	1.731931
0.367000	1.732887
0.367500	1.732250
0.368000	1.730976
0.368500	1.731931
0.369000	1.733524
0.369500	1.734480
0.370000	1.734161
0.370500	1.732568
0.371000	1.732568
0.371500	1.731613
0.372000	1.731931
0.372500	1.731294
0.373000	1.732568
0.373500	1.732568
0.374000	1.732568
0.374500	1.732250
0.375000	1.730657
0.375500	1.728746
0.376000	1.730657
0.376500	1.730976
0.377000	1.731931
0.377500	1.732250
0.378000	1.731931
0.378500	1.732887
0.379000	1.732568
0.379500	1.730976
0.380000	1.731294
0.380500	1.732568
0.381000	1.734480
0.381500	1.735117
0.382000	1.734480
0.382500	1.732250
0.383000	1.732568
0.383500	1.732250
0.384000	1.730976
0.384500	1.731613
0.385000	1.731931
0.385500	1.733205
0.386000	1.732887
0.386500	1.731931
0.387000	1.729383
0.387500	1.730339
0.388000	1.729383
0.388500	1.731613
0.389000	1.732250
0.389500	1.732568
0.390000	1.732887
0.390500	1.732568
0.391000	1.732250
0.391500	1.732250
0.392000	1.732250
0.392500	1.734161
0.393000	1.735117
0.393500	1.734480
0.394000	1.733843
0.394500	1.731931
0.395000	1.732568
0.395500	1.731931
0.396000	1.730976
0.396500	1.731294
0.397000	1.731294
0.397500	1.732887
0.398000	1.731613
0.398500	1.728427
0.399000	1.729064
0.399500	1.728746
0.400000	1.730657
0.400500	1.731613
0.401000	1.732250
0.401500	1.731613
0.402000	1.732250
0.402500	1.731931
0.403000	1.731294
0.403500	1.731613
0.404000	1.732250
0.404500	1.733524
0.405000	1.735117
0.405500	1.733205
0.406000	1.732568
0.406500	1.731931
0.407000	1.730976
0.407500	1.730657
0.408000	1.730657
0.408500	1.731294
0.409000	1.731931
0.409500	1.732568
0.410000	1.730339
0.410500	1.729702
0.411000	1.728746
0.411500	1.729702
0.412000	1.731294
0.412500	1.731931
0.413000	1.732887
0.413500	1.732568
0.414000	1.731931
0.414500	1.731931
0.415000	1.730976
0.415500	1.731613
0.416000	1.732568
0.416500	1.734480
0.417000	1.734798
0.417500	1.733843
0.418000	1.731613
0.418500	1.730976
0.419000	1.730339
0.419500	1.730657
0.420000	1.731294
0.420500	1.731613
0.421000	1.731294
0.421500	1.731931
0.422000	1.729702
0.422500	1.728427
0.423000	1.730339
0.423500	1.730020
0.424000	1.731613
0.424500	1.731613
0.425000	1.732887
0.425500	1.732250
0.426000	1.731613
0.426500	1.730657
0.427000	1.731613
0.427500	1.732568
0.428000	1.733205
0.428500	1.733843
0.429000	1.733524
0.429500	1.731613
0.430000	1.731613
0.430500	1.730657
0.431000	1.729702
0.431500	1.731294
0.432000	1.731613
0.432500	1.731931
0.433000	1.731294
0.433500	1.730976
0.434000	1.729383
0.434500	1.729383
0.435000	1.729702
0.435500	1.731294
0.436000	1.731613
0.436500	1.731613
0.437000	1.731931
0.437500	1.731931
0.438000	1.730657
0.438500	1.730976
0.439000	1.730976
0.439500	1.731931
0.440000	1.733524
0.440500	1.734161
0.441000	1.732887
0.441500	1.731931
0.442000	1.731294
0.442500	1.731613
0.443000	1.730020
0.443500	1.731613
0.444000	1.731613
0.444500	1.732250
0.445000	1.731613
0.445500	1.729702
0.446000	1.728109
0.446500	1.729383
0.447000	1.730020
0.447500	1.730976
0.448000	1.730976
0.448500	1.732250
0.449000	1.731294
0.449500	1.731294
0.450000	1.730657
0.450500	1.731294
0.451000	1.731613
0.451500	1.733843
0.452000	1.733524
0.452500	1.733843
0.453000	1.731294
0.453500	1.732250
0.454000	1.730657
0.454500	1.730657
0.455000	1.730339
0.455500	1.731294
0.456000	1.731294
0.456500	1.731613
0.457000	1.730657
0.457500	1.729064
0.458000	1.727790
0.458500	1.730020
0.459000	1.730657
0.459500	1.730976
0.460000	1.731613
0.460500	1.731931
0.461000	1.732568
0.461500	1.731294
0.462000	1.730976
0.462500	1.731294
0.463000	1.732887
0.463500	1.733205
0.464000	1.733843
0.464500	1.732568
0.465000	1.731294
0.465500	1.731294
0.466000	1.730339
0.466500	1.730976
0.467000	1.730657
0.467500	1.731613
0.468000	1.732250
0.468500	1.730976
0.469000	1.729383
0.469500	1.729064
0.470000	1.729383
0.470500	1.730976
0.471000	1.730976
0.471500	1.731613
0.472000	1.732250
0.472500	1.732250
0.473000	1.731294
0.473500	1.730976
0.474000	1.731613
0.474500	1.731931
0.475000	1.733843
0.475500	1.734480
0.476000	1.732887
0.476500	1.732568
0.477000	1.731613
0.477500	1.730976
0.478000	1.730657
0.478500	1.731931
0.479000	1.731931
0.479500	1.732250
0.480000	1.730976
0.480500	1.730657
0.481000	1.729064
0.481500	1.729702
0.482000	1.730020
0.482500	1.731613
0.483000	1.732568
0.483500	1.731931
0.484000	1.732887
0.484500	1.731931
0.485000	1.731294
0.485500	1.730339
0.486000	1.731931
0.486500	1.733205
0.487000	1.734480
0.487500	1.733205
0.488000	1.731931
0.488500	1.731613
0.489000	1.731931
0.489500	1.730020
0.490000	1.731294
0.490500	1.731613
0.491000	1.731931
0.491500	1.732250
0.492000	1.730657
0.492500	1.728746
0.493000	1.728746
0.493500	1.730657
0.494000	1.730976
0.494500	1.731931
0.495000	1.733205
0.495500	1.731931
0.496000	1.732568
0.496500	1.730657
0.497000	1.730339
0.497500	1.731931
0.498000	1.733205
0.498500	1.733524
0.499000	1.733843
0.499500	1.733205
0.500000	1.731931
0.500500	1.730657
0.501000	1.731613
0.501500	1.730657
0.502000	1.731294
0.502500	1.731931
0.503000	1.730976
0.503500	1.730657
0.504000	1.730020
0.504500	1.729383
0.505000	1.729383
0.505500	1.730976
0.506000	1.731613
0.506500	1.732250
0.507000	1.732568
0.507500	1.731931
0.508000	1.730976
0.508500	1.730339
0.509000	1.731613
0.509500	1.732887
0.510000	1.734480
0.510500	1.734480
0.511000	1.733843
0.511500	1.732250
0.512000	1.732568
0.512500	1.730976
0.513000	1.731613
0.513500	1.731931
0.514000	1.731931
0.514500	1.732568
0.515000	1.731613
0.515500	1.730657
0.516000	1.729383
0.516500	1.729383
0.517000	1.731294
0.517500	1.732250
0.518000	1.732568
0.518500	1.733843
0.519000	1.732568
0.519500	1.733205
0.520000	1.731931
0.520500	1.731294
0.521000	1.732887
0.521500	1.733843
0.522000	1.734480
0.522500	1.734480
0.523000	1.733205
0.523500	1.732887
0.524000	1.731931
0.524500	1.731294
0.525000	1.732568
0.525500	1.732568
0.526000	1.733524
0.526500	1.732887
0.527000	1.731294
0.527500	1.729702
0.528000	1.729702
0.528500	1.730657
0.529000	1.731931
0.529500	1.732568
0.530000	1.732887
0.530500	1.733205
0.531000	1.732887
0.531500	1.732250
0.532000	1.732250
0.532500	1.731931
0.533000	1.734480
0.533500	1.734798
0.534000	1.734161
0.534500	1.732887
0.535000	1.732250
0.535500	1.732568
0.536000	1.731931
0.536500	1.730976
0.537000	1.732568
0.537500	1.732887
0.538000	1.731931
0.538500	1.731613
0.539000	1.730339
0.539500	1.730020
0.540000	1.730339
0.540500	1.732250
0.541000	1.731931
0.541500	1.732887
0.542000	1.732887
0.542500	1.732568
0.543000	1.731294
0.543500	1.730976
0.544000	1.732887
0.544500	1.733524
0.545000	1.733843
0.545500	1.733205
0.546000	1.733524
0.546500	1.732568
0.547000	1.730657
0.547500	1.731294
0.548000	1.730657
0.548500	1.731613
0.549000	1.732568
0.549500	1.732250
0.550000	1.731613
0.550500	1.730657
0.551000	1.729064
0.551500	1.729702
0.552000	1.731294
0.552500	1.732250
0.553000	1.732568
0.553500	1.732568
0.554000	1.732887
0.554500	1.732887
0.555000	1.731613
0.555500	1.731294
0.556000	1.732887
0.556500	1.734480
0.557000	1.734798
0.557500	1.733524
0.558000	1.732250
0.558500	1.732568
0.559000	1.731613
0.559500	1.731294
0.560000	1.731931
0.560500	1.731931
0.561000	1.732887
0.561500	1.731931
0.562000	1.730339
0.562500	1.729064
0.563000	1.729064
0.563500	1.730976
0.564000	1.731294
0.564500	1.731931
0.565000	1.732250
0.565500	1.733205
0.566000	1.732250
0.566500	1.731294
0.567000	1.731613
0.567500	1.732887
0.568000	1.734480
0.568500	1.734161
0.569000	1.733843
0.569500	1.731931
0.570000	1.732250
0.570500	1.731613
0.571000	1.730657
0.571500	1.731613
0.572000	1.731613
0.572500	1.731613
0.573000	1.731613
0.573500	1.730976
0.574000	1.730020
0.574500	1.728746
0.575000	1.730657
0.575500	1.731931
0.576000	1.732250
0.576500	1.733205
0.577000	1.732887
0.577500	1.732568
0.578000	1.731931
0.578500	1.730976
0.579000	1.732887
0.579500	1.733843
0.580000	1.734798
0.580500	1.734480
0.581000	1.732887
0.581500	1.731931
0.582000	1.730976
0.582500	1.731294
0.583000	1.731931
0.583500	1.732250
0.584000	1.731931
0.584500	1.732568
0.585000	1.730657
0.585500	1.730020
0.586000	1.729383
0.586500	1.731294
0.587000	1.731931
0.587500	1.733205
0.588000	1.732887
0.588500	1.733205
0.589000	1.733205
0.589500	1.731931
0.590000	1.732568
0.590500	1.732887
0.591000	1.734161
0.591500	1.734480
0.592000	1.734798
0.592500	1.733524
0.593000	1.732568
0.593500	1.732250
0.594000	1.731294
0.594500	1.732568
0.595000	1.732250
0.595500	1.732887
0.596000	1.732568
0.596500	1.731931
0.597000	1.730657
0.597500	1.730339
0.598000	1.731294
0.598500	1.733205
0.599000	1.733524
0.599500	1.733843
0.600000	1.734161
0.600500	1.733205
0.601000	1.733205
0.601500	1.732887
0.602000	1.733843
0.602500	1.734161
0.603000	1.735435
0.603500	1.734480
0.604000	1.734480
0.604500	1.732568
0.605000	1.732250
0.605500	1.731931
0.606000	1.732250
0.606500	1.732887
0.607000	1.733524
0.607500	1.733843
0.608000	1.731931
0.608500	1.730339
0.609000	1.729702
0.609500	1.731931
0.610000	1.732887
0.610500	1.732568
0.611000	1.734161
0.611500	1.733205
0.612000	1.732568
0.612500	1.731931
0.613000	1.732250
0.613500	1.733205
0.614000	1.734480
0.614500	1.735754
0.615000	1.734480
0.615500	1.733205
0.616000	1.733524
0.616500	1.732568
0.617000	1.732250
0.617500	1.731613
0.618000	1.733205
0.618500	1.732568
0.619000	1.732887
0.619500	1.731613
0.620000	1.730020
0.620500	1.729383
0.621000	1.731294
0.621500	1.731931
0.622000	1.733205
0.622500	1.732250
0.623000	1.732568
0.623500	1.732887
0.624000	1.732250
0.624500	1.731931
0.625000	1.732887
0.625500	1.733843
0.626000	1.734161
0.626500	1.733524
0.627000	1.732568
0.627500	1.732568
0.628000	1.730657
0.628500	1.731294
0.629000	1.731931
0.629500	1.731931
0.630000	1.732887
0.630500	1.731931
0.631000	1.730657
0.631500	1.729383
0.632000	1.729064
0.632500	1.730976
0.633000	1.731613
0.633500	1.731931
0.634000	1.732250
0.634500	1.732250
0.635000	1.732250
0.635500	1.730976
0.636000	1.730976
0.636500	1.732568
0.637000	1.734161
0.637500	1.733843
0.638000	1.734480
0.638500	1.731294
0.639000	1.731931
0.639500	1.731931
0.640000	1.730020
0.640500	1.730976
0.641000	1.731613
0.641500	1.732250
0.642000	1.731613
0.642500	1.731294
0.643000	1.729702
0.643500	1.729702
0.644000	1.730020
0.644500	1.730976
0.645000	1.732568
0.645500	1.732887
0.646000	1.732887
0.646500	1.731931
0.647000	1.731294
0.647500	1.730657
0.648000	1.731294
0.648500	1.732887
0.649000	1.734480
0.649500	1.734480
0.650000	1.733524
0.650500	1.732568
0.651000	1.732250
0.651500	1.731613
0.652000	1.730976
0.652500	1.731613
0.653000	1.732250
0.653500	1.732250
0.654000	1.732250
0.654500	1.730657
0.655000	1.730339
0.655500	1.730657
0.656000	1.731613
0.656500	1.732568
0.657000	1.732250
0.657500	1.733524
0.658000	1.733524
0.658500	1.730020
0.659000	1.731931
0.659500	1.732250
0.660000	1.733205
0.660500	1.735435
0.661000	1.735754
0.661500	1.733524
0.662000	1.733205
0.662500	1.732250
0.663000	1.731613
0.663500	1.731931
0.664000	1.731613
0.664500	1.732250
0.665000	1.733205
0.665500	1.733205
0.666000	1.730976
0.666500	1.730657
0.667000	1.730020
0.667500	1.730976
0.668000	1.731931
0.668500	1.732568
0.669000	1.733205
0.669500	1.733205
0.670000	1.732568
0.670500	1.731613
0.671000	1.732568
0.671500	1.732887
0.672000	1.734161
0.672500	1.735117
0.673000	1.734798
0.673500	1.732568
0.674000	1.732568
0.674500	1.731294
0.675000	1.732250
0.675500	1.731294
0.676000	1.732887
0.676500	1.733205
0.677000	1.732250
0.677500	1.731931
0.678000	1.730339
0.678500	1.730339
0.679000	1.731613
0.679500	1.732568
0.680000	1.733205
0.680500	1.733524
0.681000	1.733524
0.681500	1.732887
0.682000	1.733205
0.682500	1.731613
0.683000	1.732568
0.683500	1.734480
0.684000	1.735435
0.684500	1.734480
0.685000	1.733524
0.685500	1.733524
0.686000	1.732887
0.686500	1.732250
0.687000	1.731931
0.687500	1.731931
0.688000	1.732887
0.688500	1.732250
0.689000	1.732250
0.689500	1.729702
0.690000	1.730339
0.690500	1.730657
0.691000	1.731613
0.691500	1.732250
0.692000	1.733205
0.692500	1.734161
0.693000	1.733205
0.693500	1.731931
0.694000	1.732250
0.694500	1.732568
0.695000	1.733843
0.695500	1.735435
0.696000	1.735117
0.696500	1.734161
0.697000	1.732887
0.697500	1.732250
0.698000	1.731931
0.698500	1.732250
0.699000	1.732568
0.699500	1.732568
0.700000	1.733205
0.700500	1.732250
0.701000	1.730976
0.701500	1.729383
0.702000	1.731294
0.702500	1.732568
0.703000	1.732250
0.703500	1.733205
0.704000	1.733843
0.704500	1.732887
0.705000	1.732568
0.705500	1.732568
0.706000	1.732250
0.706500	1.734161
0.707000	1.735435
0.707500	1.734798
0.708000	1.733843
0.708500	1.732250
0.709000	1.732568
0.709500	1.732250
0.710000	1.731931
0.710500	1.733205
0.711000	1.732568
0.711500	1.733843
0.712000	1.731931
0.712500	1.731294
0.713000	1.729702
0.713500	1.730657
0.714000	1.731613
0.714500	1.732568
0.715000	1.733524
0.715500	1.732887
0.716000	1.733524
0.716500	1.732887
0.717000	1.732568
0.717500	1.731931
0.718000	1.733843
0.718500	1.734798
0.719000	1.735117
0.719500	1.734480
0.720000	1.732887
0.720500	1.730976
0.721000	1.731931
0.721500	1.730657
0.722000	1.731294
0.722500	1.731931
0.723000	1.732250
0.723500	1.731931
0.724000	1.730976
0.724500	1.728746
0.725000	1.729702
0.725500	1.730339
0.726000	1.731294
0.726500	1.731294
0.727000	1.732568
0.727500	1.731931
0.728000	1.731613
0.728500	1.731931
0.729000	1.731294
0.729500	1.732568
0.730000	1.733524
0.730500	1.733843
0.731000	1.733524
0.731500	1.732250
0.732000	1.731294
0.732500	1.730976
0.733000	1.730339
0.733500	1.731613
0.734000	1.731613
0.734500	1.732887
0.735000	1.731294
0.735500	1.729383
0.736000	1.728746
0.736500	1.728746
0.737000	1.729702
0.737500	1.730657
0.738000	1.731613
0.738500	1.730020
0.739000	1.731931
0.739500	1.731613
0.740000	1.730976
0.740500	1.731294
0.741000	1.732568
0.741500	1.732568
0.742000	1.733524
0.742500	1.732568
0.743000	1.731931
0.743500	1.731294
0.744000	1.730020
0.744500	1.730657
0.745000	1.698803
0.745500	1.730976
0.746000	1.731931
0.746500	1.731294
0.747000	1.730339
0.747500	1.729064
0.748000	1.728746
0.748500	1.730020
0.749000	1.730657
0.749500	1.730657
0.750000	1.731294
0.750500	1.731294
0.751000	1.732250
0.751500	1.731294
0.752000	1.730657
0.752500	1.732250
0.753000	1.733205
0.753500	1.733843
0.754000	1.733205
0.754500	1.732568
0.755000	1.732568
0.755500	1.730339
0.756000	1.730339
0.756500	1.730976
0.757000	1.731294
0.757500	1.731931
0.758000	1.731294
0.758500	1.730976
0.759000	1.729383
0.759500	1.729064
0.760000	1.730020
0.760500	1.731294
0.761000	1.732250
0.761500	1.732568
0.762000	1.733524
0.762500	1.730657
0.763000	1.730976
0.763500	1.731294
0.764000	1.732250
0.764500	1.733205
0.765000	1.734480
0.765500	1.733843
0.766000	1.732568
0.766500	1.731931
0.767000	1.730976
0.767500	1.730657
0.768000	1.730657
0.768500	1.731613
0.769000	1.731931
0.769500	1.732250
0.770000	1.730976
0.770500	1.729702
0.771000	1.729383
0.771500	1.730339
0.772000	1.731294
0.772500	1.732250
0.773000	1.732250
0.773500	1.732250
0.774000	1.731931
0.774500	1.732568
0.775000	1.731931
0.775500	1.733205
0.776000	1.734480
0.776500	1.735117
0.777000	1.734480
0.777500	1.732887
0.778000	1.732250
0.778500	1.730339
0.779000	1.731294
0.779500	1.732250
0.780000	1.732250
0.780500	1.733843
0.781000	1.732250
0.781500	1.730976
0.782000	1.729702
0.782500	1.730339
0.783000	1.731613
0.783500	1.732250
0.784000	1.733205
0.784500	1.733205
0.785000	1.733524
0.785500	1.732887
0.786000	1.731931
0.786500	1.732568
0.787000	1.733843
0.787500	1.734798
0.788000	1.734798
0.788500	1.733524
0.789000	1.733524
0.789500	1.730976
0.790000	1.731294
0.790500	1.731931
0.791000	1.732887
0.791500	1.732887
0.792000	1.733843
0.792500	1.732568
0.793000	1.730976
0.793500	1.730020
0.794000	1.729702
0.794500	1.730976
0.795000	1.732250
0.795500	1.732887
0.796000	1.732887
0.796500	1.732887
0.797000	1.731931
0.797500	1.731294
0.798000	1.732568
0.798500	1.734161
0.799000	1.734480
0.799500	1.734798
0.800000	1.733524
0.800500	1.732568
0.801000	1.731931
0.801500	1.730976
0.802000	1.731613
0.802500	1.732250
0.803000	1.732887
0.803500	1.733205
0.804000	1.731294
0.804500	1.730020
0.805000	1.729383
0.805500	1.730339
0.806000	1.731294
0.806500	1.732250
0.807000	1.733524
0.807500	1.732887
0.808000	1.732568
0.808500	1.731931
0.809000	1.731613
0.809500	1.731931
0.810000	1.732887
0.810500	1.735117
0.811000	1.734480
0.811500	1.733524
0.812000	1.732568
0.812500	1.732250
0.813000	1.730657
0.813500	1.730657
0.814000	1.731613
0.814500	1.731931
0.815000	1.732568
0.815500	1.731294
0.816000	1.730976
0.816500	1.730020
0.817000	1.730339
0.817500	1.730976
0.818000	1.731931
0.818500	1.735754
0.819000	1.731931
0.819500	1.732568
0.820000	1.732250
0.820500	1.731294
0.821000	1.732250
0.821500	1.733524
0.822000	1.734161
0.822500	1.734798
0.823000	1.733843
0.823500	1.732568
0.824000	1.731931
0.824500	1.730339
0.825000	1.731613
0.825500	1.731294
0.826000	1.731931
0.826500	1.731931
0.827000	1.731931
0.827500	1.730020
0.828000	1.728746
0.828500	1.730339
0.829000	1.730976
0.829500	1.731931
0.830000	1.733524
0.830500	1.733205
0.831000	1.731931
0.831500	1.732250
0.832000	1.730657
0.832500	1.732250
0.833000	1.733205
0.833500	1.733843
0.834000	1.734480
0.834500	1.732887
0.835000	1.732887
0.835500	1.731294
0.836000	1.731294
0.836500	1.730339
0.837000	1.731931
0.837500	1.732568
0.838000	1.731931
0.838500	1.733205
0.839000	1.730657
0.839500	1.729064
0.840000	1.729702
0.840500	1.730657
0.841000	1.731931
0.841500	1.732568
0.842000	1.732568
0.842500	1.732887
0.843000	1.731613
0.843500	1.730976
0.844000	1.730976
0.844500	1.733205
0.845000	1.734161
0.845500	1.733843
0.846000	1.733524
0.846500	1.731613
0.847000	1.731931
0.847500	1.730339
0.848000	1.730657
0.848500	1.730976
0.849000	1.732568
0.849500	1.731931
0.850000	1.731294
0.850500	1.730339
0.851000	1.729064
0.851500	1.729702
0.852000	1.730020
0.852500	1.731931
0.853000	1.732250
0.853500	1.732568
0.854000	1.732250
0.854500	1.731613
0.855000	1.730657
0.855500	1.731613
0.856000	1.732250
0.856500	1.732568
0.857000	1.733843
0.857500	1.733205
0.858000	1.731613
0.858500	1.684151
0.859000	1.730020
0.859500	1.730976
0.860000	1.731294
0.860500	1.731931
0.861000	1.731931
0.861500	1.731931
0.862000	1.730020
0.862500	1.729064
0.863000	1.729383
0.863500	1.730657
0.864000	1.731613
0.864500	1.731931
0.865000	1.732568
0.865500	1.731931
0.866000	1.731931
0.866500	1.732250
0.867000	1.731294
0.867500	1.732887
0.868000	1.733524
0.868500	1.734161
0.869000	1.733524
0.869500	1.731613
0.870000	1.731613
0.870500	1.730339
0.871000	1.730339
0.871500	1.730976
0.872000	1.732568
0.872500	1.732250
0.873000	1.731931
0.873500	1.730339
0.874000	1.729383
0.874500	1.729064
0.875000	1.731294
0.875500	1.731931
0.876000	1.732568
0.876500	1.732250
0.877000	1.731931
0.877500	1.731931
0.878000	1.731613
0.878500	1.730976
0.879000	1.731931
0.879500	1.733843
0.880000	1.734480
0.880500	1.734161
0.881000	1.731931
0.881500	1.731931
0.882000	1.731294
0.882500	1.730976
0.883000	1.731931
0.883500	1.731613
0.884000	1.732568
0.884500	1.732250
0.885000	1.731613
0.885500	1.730339
0.886000	1.731294
0.886500	1.731613
0.887000	1.732250
0.887500	1.732887
0.888000	1.732887
0.888500	1.732887
0.889000	1.733524
0.889500	1.731931
0.890000	1.731931
0.890500	1.733205
0.891000	1.735117
0.891500	1.735435
0.892000	1.734798
0.892500	1.733843
0.893000	1.732568
0.893500	1.732250
0.894000	1.732250
0.894500	1.731613
0.895000	1.733524
0.895500	1.733843
0.896000	1.732250
0.896500	1.731294
0.897000	1.730976
0.897500	1.730657
0.898000	1.731931
0.898500	1.732887
0.899000	1.732887
0.899500	1.733524
0.900000	1.733524
0.900500	1.732568
0.901000	1.732568
0.901500	1.732568
0.902000	1.734161
0.902500	1.735117
0.903000	1.734798
0.903500	1.735117
0.904000	1.733205
0.904500	1.733843
0.905000	1.732250
0.905500	1.732887
0.906000	1.731931
0.906500	1.733205
0.907000	1.733524
0.907500	1.732568
0.908000	1.731613
0.908500	1.729702
0.909000	1.730020
0.909500	1.731613
0.910000	1.733205
0.910500	1.733524
0.911000	1.734161
0.911500	1.733524
0.912000	1.732887
0.912500	1.733205
0.913000	1.732568
0.913500	1.734480
0.914000	1.735435
0.914500	1.735754
0.915000	1.734161
0.915500	1.733524
0.916000	1.732250
0.916500	1.732250
0.917000	1.732250
0.917500	1.732250
0.918000	1.733205
0.918500	1.733205
0.919000	1.733524
0.919500	1.731613
0.920000	1.730020
0.920500	1.730020
0.921000	1.731931
0.921500	1.732887
0.922000	1.733205
0.922500	1.733524
0.923000	1.733524
0.923500	1.733205
0.924000	1.733205
0.924500	1.732568
0.925000	1.733205
0.925500	1.735435
0.926000	1.735754
0.926500	1.735117
0.927000	1.734161
0.927500	1.732568
0.928000	1.732568
0.928500	1.730976
0.929000	1.731931
0.929500	1.732568
0.930000	1.732568
0.930500	1.732887
0.931000	1.731613
0.931500	1.730976
0.932000	1.730657
0.932500	1.732250
0.933000	1.733205
0.933500	1.732887
0.934000	1.733843
0.934500	1.733843
0.935000	1.732887
0.935500	1.732250
0.936000	1.731931
0.936500	1.733843
0.937000	1.734480
0.937500	1.735754
0.938000	1.735435
0.938500	1.733205
0.939000	1.731931
0.939500	1.731613
0.940000	1.731294
0.940500	1.732250
0.941000	1.732887
0.941500	1.733205
0.942000	1.733524
0.942500	1.730657
0.943000	1.730339
0.943500	1.729702
0.944000	1.731931
0.944500	1.731613
0.945000	1.732250
0.945500	1.733205
0.946000	1.733843
0.946500	1.733205
0.947000	1.731613
0.947500	1.731294
0.948000	1.733205
0.948500	1.733843
0.949000	1.735117
0.949500	1.733524
0.950000	1.732250
0.950500	1.731931
0.951000	1.730657
0.951500	1.731294
0.952000	1.731931
0.952500	1.732250
0.953000	1.732887
0.953500	1.731931
0.954000	1.730020
0.954500	1.729383
0.955000	1.729383
0.955500	1.731294
0.956000	1.731931
0.956500	1.732250
0.957000	1.732887
0.957500	1.732568
0.958000	1.731931
0.958500	1.730657
0.959000	1.732568
0.959500	1.732887
0.960000	1.733843
0.960500	1.734480
0.961000	1.733205
0.961500	1.732250
0.962000	1.730976
0.962500	1.731294
0.963000	1.730339
0.963500	1.731294
0.964000	1.731294
0.964500	1.732250
0.965000	1.730020
0.965500	1.729383
0.966000	1.728746
0.966500	1.729383
0.967000	1.730976
0.967500	1.731613
0.968000	1.731931
0.968500	1.731931
0.969000	1.731931
0.969500	1.732250
0.970000	1.730657
0.970500	1.731613
0.971000	1.732887
0.971500	1.734161
0.972000	1.734480
0.972500	1.731613
0.973000	1.731613
0.973500	1.730976
0.974000	1.730657
0.974500	1.730976
0.975000	1.730657
0.975500	1.731294
0.976000	1.730657
0.976500	1.730976
0.977000	1.729064
0.977500	1.729064
0.978000	1.729383
0.978500	1.731294
0.979000	1.731931
0.979500	1.731613
0.980000	1.732250
0.980500	1.731931
0.981000	1.730657
0.981500	1.730976
0.982000	1.730657
0.982500	1.733205
0.983000	1.733205
0.983500	1.732568
0.984000	1.731931
0.984500	1.730976
0.985000	1.730976
0.985500	1.730339
0.986000	1.730020
0.986500	1.730020
0.987000	1.731294
0.987500	1.730976
0.988000	1.729383
0.988500	1.728109
0.989000	1.728427
0.989500	1.730020
0.990000	1.730339
0.990500	1.731613
0.991000	1.731294
0.991500	1.731931
0.992000	1.730976
0.992500	1.730020
0.993000	1.730657
0.993500	1.731294
0.994000	1.732568
0.994500	1.733205
0.995000	1.733205
0.995500	1.730976
0.996000	1.730339
0.996500	1.730339
0.997000	1.730020
0.997500	1.730339
0.998000	1.730976
0.998500	1.731931
0.999000	1.730976
0.999500	1.730657
1.000000	1.730020
1.000500	1.728427
1.001000	1.729383
1.001500	1.730976
1.002000	1.730976
1.002500	1.731613
1.003000	1.731613
1.003500	1.731613
1.004000	1.731294
1.004500	1.730976
1.005000	1.731294
1.005500	1.732887
1.006000	1.733524
1.006500	1.734161
1.007000	1.732568
1.007500	1.730657
1.008000	1.730339
1.008500	1.730020
1.009000	1.730976
1.009500	1.731294
1.010000	1.731931
1.010500	1.731613
1.011000	1.730657
1.011500	1.729383
1.012000	1.728746
1.012500	1.730339
1.013000	1.731294
1.013500	1.731294
1.014000	1.731294
1.014500	1.732250
1.015000	1.732250
1.015500	1.731613
1.016000	1.730657
1.016500	1.731613
1.017000	1.733524
1.017500	1.734161
1.018000	1.732887
1.018500	1.732568
1.019000	1.732250
1.019500	1.731294
1.020000	1.730657
1.020500	1.731613
1.021000	1.731294
1.021500	1.732250
1.022000	1.731931
1.022500	1.730976
1.023000	1.728746
1.023500	1.729383
1.024000	1.730339
1.024500	1.731931
1.025000	1.731294
1.025500	1.732887
1.026000	1.732568
1.026500	1.733524
1.027000	1.731613
1.027500	1.730657
1.028000	1.730976
1.028500	1.732887
1.029000	1.733843
1.029500	1.734161
1.030000	1.732568
1.030500	1.731931
1.031000	1.730339
1.031500	1.730339
1.032000	1.731294
1.032500	1.731613
1.033000	1.731931
1.033500	1.731931
1.034000	1.730657
1.034500	1.729702
1.035000	1.729383
1.035500	1.730339
1.036000	1.730976
1.036500	1.732250
1.037000	1.732887
1.037500	1.732568
1.038000	1.732250
1.038500	1.730976
1.039000	1.731931
1.039500	1.732887
1.040000	1.733843
1.040500	1.734798
1.041000	1.734161
1.041500	1.732568
1.042000	1.731931
1.042500	1.731294
1.043000	1.730657
1.043500	1.730339
1.044000	1.732568
1.044500	1.733524
1.045000	1.731294
1.045500	1.730657
1.046000	1.730020
1.046500	1.730339
1.047000	1.731294
1.047500	1.731931
1.048000	1.731613
1.048500	1.732250
1.049000	1.732568
1.049500	1.731931
1.050000	1.731931
1.050500	1.730976
1.051000	1.733205
1.051500	1.733843
1.052000	1.734161
1.052500	1.733205
1.053000	1.733205
1.053500	1.730976
1.054000	1.731294
1.054500	1.730657
1.055000	1.731931
1.055500	1.732568
1.056000	1.732250
1.056500	1.731613
1.057000	1.730339
1.057500	1.729702
1.058000	1.729064
1.058500	1.731613
1.059000	1.731613
1.059500	1.731931
1.060000	1.732568
1.060500	1.731931
1.061000	1.732250
1.061500	1.731613
1.062000	1.731931
1.062500	1.732568
1.063000	1.733843
1.063500	1.733524
1.064000	1.733524
1.064500	1.731931
1.065000	1.731931
1.065500	1.731294
1.066000	1.730976
1.066500	1.730657
1.067000	1.731931
1.067500	1.732250
1.068000	1.730339
1.068500	1.729383
1.069000	1.729064
1.069500	1.729064
1.070000	1.730657
1.070500	1.731294
1.071000	1.731613
1.071500	1.732568
1.072000	1.731613
1.072500	1.730339
1.073000	1.730339
1.073500	1.731294
1.074000	1.732887
1.074500	1.733524
1.075000	1.734161
1.075500	1.732568
1.076000	1.731613
1.076500	1.731294
1.077000	1.729702
1.077500	1.731613
1.078000	1.730976
1.078500	1.731931
1.079000	1.731294
1.079500	1.731294
1.080000	1.729064
1.080500	1.729064
1.081000	1.729383
1.081500	1.730657
1.082000	1.731294
1.082500	1.731931
1.083000	1.732568
1.083500	1.732250
1.084000	1.730657
1.084500	1.731294
1.085000	1.731613
1.085500	1.733205
1.086000	1.733524
1.086500	1.733205
1.087000	1.732250
1.087500	1.731613
1.088000	1.730020
1.088500	1.730339
1.089000	1.730020
1.089500	1.731294
1.090000	1.731931
1.090500	1.731613
1.091000	1.730020
1.091500	1.728746
1.092000	1.729383
1.092500	1.729702
1.093000	1.731294
1.093500	1.731931
1.094000	1.732568
1.094500	1.732568
1.095000	1.731613
1.095500	1.730020
1.096000	1.731931
1.096500	1.732250
1.097000	1.733205
1.097500	1.734480
1.098000	1.732887
1.098500	1.731931
1.099000	1.731294
1.099500	1.730976
1.100000	1.730339
1.100500	1.730339
1.101000	1.731613
1.101500	1.731931
1.102000	1.731294
1.102500	1.730657
1.103000	1.729383
1.103500	1.729702
1.104000	1.729702
1.104500	1.731294
1.105000	1.731931
1.105500	1.732250
1.106000	1.733205
1.106500	1.731931
1.107000	1.731613
1.107500	1.731294
1.108000	1.732250
1.108500	1.734480
1.109000	1.734480
1.109500	1.733205
1.110000	1.731294
1.110500	1.730976
1.111000	1.731294
1.111500	1.730976
1.112000	1.731613
1.112500	1.731613
1.113000	1.731931
1.113500	1.731613
1.114000	1.730020
1.114500	1.729064
1.115000	1.729702
1.115500	1.730020
1.116000	1.731294
1.116500	1.731931
1.117000	1.732568
1.117500	1.731931
1.118000	1.731294
1.118500	1.730339
1.119000	1.730976
1.119500	1.731931
1.120000	1.733524
1.120500	1.733205
1.121000	1.733843
1.121500	1.731931
1.122000	1.730976
1.122500	1.730339
1.123000	1.730976
1.123500	1.731294
1.124000	1.731294
1.124500	1.731613
1.125000	1.730976
1.125500	1.730020
1.126000	1.728746
1.126500	1.728427
1.127000	1.729383
1.127500	1.731613
1.128000	1.731294
1.128500	1.731931
1.129000	1.731294
1.129500	1.731613
1.130000	1.730657
1.130500	1.730020
1.131000	1.731613
1.131500	1.732568
1.132000	1.733524
1.132500	1.733843
1.133000	1.732568
1.133500	1.730976
1.134000	1.730657
1.134500	1.730020
1.135000	1.730339
1.135500	1.730976
1.136000	1.731294
1.136500	1.730976
1.137000	1.729383
1.137500	1.729064
1.138000	1.727790
1.138500	1.729064
1.139000	1.730976
1.139500	1.730657
1.140000	1.730657
1.140500	1.731294
1.141000	1.731613
1.141500	1.731294
1.142000	1.730976
1.142500	1.730339
1.143000	1.731294
1.143500	1.733524
1.144000	1.732887
1.144500	1.731613
1.145000	1.730976
1.145500	1.730020
1.146000	1.729064
1.146500	1.729383
1.147000	1.730339
1.147500	1.730020
1.148000	1.730020
1.148500	1.730339
1.149000	1.728109
1.149500	1.727472
1.150000	1.727472
1.150500	1.729383
1.151000	1.730976
1.151500	1.730657
1.152000	1.731931
1.152500	1.730976
1.153000	1.730339
1.153500	1.730339
1.154000	1.729064
1.154500	1.732250
1.155000	1.733205
1.155500	1.732568
1.156000	1.732568
1.156500	1.731294
1.157000	1.730339
1.157500	1.729383
1.158000	1.729383
1.158500	1.730657
1.159000	1.730657
1.159500	1.730976
1.160000	1.730020
1.160500	1.729383
1.161000	1.728427
1.161500	1.728746
1.162000	1.730339
1.162500	1.730339
1.163000	1.730976
1.163500	1.730976
1.164000	1.731613
1.164500	1.731294
1.165000	1.731294
1.165500	1.730339
1.166000	1.731613
1.166500	1.733205
1.167000	1.733205
1.167500	1.732250
1.168000	1.732250
1.168500	1.730339
1.169000	1.730020
1.169500	1.729383
1.170000	1.731294
1.170500	1.730976
1.171000	1.731294
1.171500	1.731294
1.172000	1.729702
1.172500	1.728427
1.173000	1.729064
1.173500	1.730339
1.174000	1.731294
1.174500	1.731613
1.175000	1.731294
1.175500	1.732250
1.176000	1.731613
1.176500	1.731294
1.177000	1.730339
1.177500	1.731294
1.178000	1.732887
1.178500	1.733524
1.179000	1.732568
1.179500	1.733205
1.180000	1.730657
1.180500	1.730657
1.181000	1.730339
1.181500	1.729702
1.182000	1.732250
1.182500	1.731931
1.183000	1.731931
1.183500	1.730657
1.184000	1.728746
1.184500	1.728746
1.185000	1.729383
1.185500	1.730657
1.186000	1.730976
1.186500	1.731931
1.187000	1.732250
1.187500	1.732568
1.188000	1.731613
1.188500	1.731294
1.189000	1.732250
1.189500	1.733205
1.190000	1.733205
1.190500	1.733205
1.191000	1.731931
1.191500	1.730976
1.192000	1.731613
1.192500	1.730657
1.193000	1.730976
1.193500	1.730339
1.194000	1.731613
1.194500	1.730657
1.195000	1.730976
1.195500	1.729064
1.196000	1.728109
1.196500	1.728427
1.197000	1.730020
1.197500	1.731613
1.198000	1.730976
1.198500	1.731613
1.199000	1.731613
1.199500	1.730657
1.200000	1.730657
1.200500	1.731294
1.201000	1.732250
1.201500	1.733205
1.202000	1.734161
1.202500	1.733524
1.203000	1.730976
1.203500	1.730976
1.204000	1.730020
1.204500	1.730976
1.205000	1.730976
1.205500	1.730976
1.206000	1.732887
1.206500	1.730339
1.207000	1.729702
1.207500	1.728109
1.208000	1.729383
1.208500	1.730020
1.209000	1.731294
1.209500	1.731613
1.210000	1.732250
1.210500	1.731931
1.211000	1.732250
1.211500	1.731294
1.212000	1.730976
1.212500	1.732250
1.213000	1.733843
1.213500	1.734798
1.214000	1.733843
1.214500	1.732568
1.215000	1.731613
1.215500	1.730339
1.216000	1.731294
1.216500	1.730976
1.217000	1.731613
1.217500	1.731931
1.218000	1.730657
1.218500	1.730020
1.219000	1.728427
1.219500	1.728427
1.220000	1.730976
1.220500	1.731931
1.221000	1.732250
1.221500	1.732568
1.222000	1.732568
1.222500	1.731613
1.223000	1.731613
1.223500	1.731294
1.224000	1.732887
1.224500	1.734161
1.225000	1.734161
1.225500	1.733205
1.226000	1.732250
1.226500	1.731294
1.227000	1.730976
1.227500	1.730339
1.228000	1.731613
1.228500	1.732568
1.229000	1.731931
1.229500	1.731613
1.230000	1.729383
1.230500	1.729383
1.231000	1.730020
1.231500	1.730976
1.232000	1.731294
1.232500	1.732568
1.233000	1.732250
1.233500	1.732250
1.234000	1.731931
1.234500	1.730976
1.235000	1.731613
1.235500	1.732250
1.236000	1.734161
1.236500	1.733843
1.237000	1.732250
1.237500	1.731294
1.238000	1.730657
1.238500	1.730020
1.239000	1.731294
1.239500	1.731294
1.240000	1.731931
1.240500	1.732887
1.241000	1.731294
1.241500	1.730020
1.242000	1.729064
1.242500	1.729383
1.243000	1.730976
1.243500	1.732568
1.244000	1.731613
1.244500	1.732250
1.245000	1.731931
1.245500	1.731931
1.246000	1.731613
1.246500	1.731613
1.247000	1.732887
1.247500	1.734480
1.248000	1.733843
1.248500	1.732887
1.249000	1.731931
1.249500	1.731931
1.250000	1.731294
1.250500	1.730976
1.251000	1.731294
1.251500	1.731294
1.252000	1.732250
1.252500	1.731613
1.253000	1.729702
1.253500	1.729383
1.254000	1.730339
1.254500	1.730976
1.255000	1.731931
1.255500	1.732887
1.256000	1.733524
1.256500	1.731613
1.257000	1.731931
1.257500	1.730339
1.258000	1.731294
1.258500	1.733205
1.259000	1.733524
1.259500	1.734161
1.260000	1.733524
1.260500	1.732250
1.261000	1.731931
1.261500	1.730657
1.262000	1.730976
1.262500	1.730657
1.263000	1.730976
1.263500	1.731613
1.264000	1.731613
1.264500	1.730339
1.265000	1.729064
1.265500	1.729383
1.266000	1.730657
1.266500	1.731294
1.267000	1.731613
1.267500	1.731613
1.268000	1.732568
1.268500	1.731931
1.269000	1.731294
1.269500	1.731294
1.270000	1.731931
1.270500	1.733524
1.271000	1.735117
1.271500	1.733843
1.272000	1.733524
1.272500	1.732250
1.273000	1.731294
1.273500	1.731613
1.274000	1.731613
1.274500	1.731931
1.275000	1.733205
1.275500	1.732250
1.276000	1.731931
1.276500	1.729383
1.277000	1.728746
1.277500	1.730339
1.278000	1.730976
1.278500	1.731613
1.279000	1.732250
1.279500	1.733843
1.280000	1.731931
1.280500	1.731294
1.281000	1.731294
1.281500	1.731294
1.282000	1.733524
1.282500	1.734798
1.283000	1.734798
1.283500	1.732887
1.284000	1.731931
1.284500	1.731613
1.285000	1.730339
1.285500	1.731294
1.286000	1.731613
1.286500	1.731931
1.287000	1.732250
1.287500	1.731613
1.288000	1.729702
1.288500	1.728427
1.289000	1.730020
1.289500	1.730657
1.290000	1.731931
1.290500	1.732887
1.291000	1.731931
1.291500	1.732887
1.292000	1.732250
1.292500	1.731294
1.293000	1.730339
1.293500	1.733205
1.294000	1.733205
1.294500	1.733524
1.295000	1.733205
1.295500	1.732250
1.296000	1.730976
1.296500	1.730976
1.297000	1.730657
1.297500	1.730976
1.298000	1.732250
1.298500	1.731931
1.299000	1.731931
1.299500	1.730339
1.300000	1.728746
1.300500	1.730020
1.301000	1.730339
1.301500	1.731931
1.302000	1.732568
1.302500	1.731931
1.303000	1.732568
1.303500	1.731294
1.304000	1.730657
1.304500	1.731613
1.305000	1.732250
1.305500	1.733205
1.306000	1.734480
1.306500	1.733205
1.307000	1.732250
1.307500	1.730657
1.308000	1.730657
1.308500	1.730657
1.309000	1.730976
1.309500	1.731294
1.310000	1.731613
1.310500	1.731931
1.311000	1.730339
1.311500	1.728109
1.312000	1.728427
1.312500	1.729064
1.313000	1.730657
1.313500	1.731931
1.314000	1.730976
1.314500	1.731613
1.315000	1.730976
1.315500	1.731931
1.316000	1.731294
1.316500	1.730976
1.317000	1.733205
1.317500	1.733205
1.318000	1.733843
1.318500	1.731931
1.319000	1.731613
1.319500	1.730339
1.320000	1.730976
1.320500	1.730976
1.321000	1.731613
1.321500	1.731613
1.322000	1.732250
1.322500	1.730976
1.323000	1.729383
1.323500	1.728746
1.324000	1.728746
1.324500	1.730657
1.325000	1.731294
1.325500	1.732250
1.326000	1.731931
1.326500	1.731294
1.327000	1.731294
1.327500	1.730976
1.328000	1.731613
1.328500	1.732568
1.329000	1.733524
1.329500	1.734161
1.330000	1.732568
1.330500	1.731931
1.331000	1.730339
1.331500	1.730657
1.332000	1.730020
1.332500	1.730976
1.333000	1.731613
1.333500	1.731931
1.334000	1.730657
1.334500	1.729383
1.335000	1.728427
1.335500	1.730020
1.336000	1.730339
1.336500	1.731613
1.337000	1.732250
1.337500	1.731931
1.338000	1.731931
1.338500	1.730657
1.339000	1.731294
1.339500	1.730976
1.340000	1.732250
1.340500	1.734480
1.341000	1.733524
1.341500	1.732568
1.342000	1.731613
1.342500	1.730976
1.343000	1.730020
1.343500	1.731294
1.344000	1.730976
1.344500	1.732250
1.345000	1.732568
1.345500	1.730976
1.346000	1.730339
1.346500	1.729064
1.347000	1.729383
1.347500	1.731294
1.348000	1.731613
1.348500	1.732568
1.349000	1.732250
1.349500	1.732887
1.350000	1.732250
1.350500	1.731613
1.351000	1.732250
1.351500	1.733205
1.352000	1.735117
1.352500	1.735117
1.353000	1.733524
1.353500	1.732250
1.354000	1.732250
1.354500	1.731613
1.355000	1.730976
1.355500	1.731931
1.356000	1.731931
1.356500	1.732250
1.357000	1.731931
1.357500	1.730020
1.358000	1.729702
1.358500	1.730020
1.359000	1.730976
1.359500	1.731931
1.360000	1.732887
1.360500	1.732568
1.361000	1.733524
1.361500	1.732887
1.362000	1.731613
1.362500	1.732887
1.363000	1.733524
1.363500	1.734798
1.364000	1.734480
1.364500	1.733524
1.365000	1.732887
1.365500	1.732250
1.366000	1.730976
1.366500	1.731613
1.367000	1.731931
1.367500	1.733524
1.368000	1.733524
1.368500	1.731613
1.369000	1.731613
1.369500	1.729064
1.370000	1.730657
1.370500	1.731294
1.371000	1.732887
1.371500	1.732887
1.372000	1.732887
1.372500	1.733205
1.373000	1.732250
1.373500	1.732568
1.374000	1.731931
1.374500	1.733524
1.375000	1.733843
1.375500	1.735117
1.376000	1.733843
1.376500	1.731931
1.377000	1.732250
1.377500	1.730976
1.378000	1.730339
1.378500	1.731613
1.379000	1.733524
1.379500	1.733524
1.380000	1.732887
1.380500	1.731294
1.381000	1.729702
1.381500	1.730020
1.382000	1.730339
1.382500	1.731931
1.383000	1.732568
1.383500	1.732887
1.384000	1.732887
1.384500	1.732568
1.385000	1.731294
1.385500	1.731931
1.386000	1.732568
1.386500	1.733524
1.387000	1.734161
1.387500	1.733843
1.388000	1.732250
1.388500	1.731931
1.389000	1.731931
1.389500	1.731931
1.390000	1.730976
1.390500	1.731931
1.391000	1.732250
1.391500	1.731931
1.392000	1.730976
1.392500	1.728746
1.393000	1.729702
1.393500	1.730339
1.394000	1.730976
1.394500	1.732568
1.395000	1.732568
1.395500	1.732568
1.396000	1.732250
1.396500	1.731931
1.397000	1.731294
1.397500	1.731931
1.398000	1.734480
1.398500	1.734480
1.399000	1.733843
1.399500	1.733205
1.400000	1.731294
1.400500	1.731931
1.401000	1.731613
1.401500	1.730657
1.402000	1.731931
1.402500	1.732250
1.403000	1.731931
1.403500	1.730020
1.404000	1.729383
1.404500	1.729702
1.405000	1.730020
1.405500	1.731294
1.406000	1.732568
1.406500	1.732568
1.407000	1.733205
1.407500	1.732250
1.408000	1.731294
1.408500	1.731294
1.409000	1.732250
1.409500	1.733524
1.410000	1.734161
1.410500	1.733843
1.411000	1.732568
1.411500	1.730976
1.412000	1.730339
1.412500	1.730976
1.413000	1.731294
1.413500	1.731931
1.414000	1.730657
1.414500	1.732250
1.415000	1.730976
1.415500	1.729064
1.416000	1.728746
1.416500	1.730020
1.417000	1.731613
1.417500	1.731931
1.418000	1.731931
1.418500	1.732568
1.419000	1.731931
1.419500	1.730976
1.420000	1.730657
1.420500	1.731931
1.421000	1.733205
1.421500	1.734480
1.422000	1.733205
1.422500	1.732250
1.423000	1.730976
1.423500	1.731613
1.424000	1.731294
1.424500	1.731294
1.425000	1.731613
1.425500	1.733205
1.426000	1.732887
1.426500	1.730976
1.427000	1.729383
1.427500	1.730020
1.428000	1.730339
1.428500	1.730976
1.429000	1.731294
1.429500	1.732887
1.430000	1.732250
1.430500	1.732887
1.431000	1.731931
1.431500	1.730976
1.432000	1.731931
1.432500	1.733524
1.433000	1.734798
1.433500	1.733524
1.434000	1.732887
1.434500	1.732250
1.435000	1.731294
1.435500	1.731613
1.436000	1.731613
1.436500	1.731931
1.437000	1.732887
1.437500	1.732250
1.438000	1.731294
1.438500	1.729702
1.439000	1.729383
1.439500	1.730657
1.440000	1.730976
1.440500	1.731931
1.441000	1.732568
1.441500	1.732568
1.442000	1.732250
1.442500	1.731613
1.443000	1.731294
1.443500	1.732250
1.444000	1.733524
1.444500	1.734798
1.445000	1.733843
1.445500	1.732887
1.446000	1.733524
1.446500	1.731931
1.447000	1.731613
1.447500	1.731931
1.448000	1.733205
1.448500	1.733205
1.449000	1.733205
1.449500	1.731931
1.450000	1.730020
1.450500	1.730657
1.451000	1.731294
1.451500	1.731613
1.452000	1.732250
1.452500	1.733205
1.453000	1.733843
1.453500	1.733524
1.454000	1.733205
1.454500	1.732568
1.455000	1.733843
1.455500	1.734798
1.456000	1.736072
1.456500	1.735754
1.457000	1.735117
1.457500	1.732887
1.458000	1.731931
1.458500	1.732250
1.459000	1.732250
1.459500	1.732568
1.460000	1.732887
1.460500	1.733843
1.461000	1.732568
1.461500	1.730339
1.462000	1.730339
1.462500	1.730657
1.463000	1.732887
1.463500	1.733205
1.464000	1.732887
1.464500	1.733205
1.465000	1.733524
1.465500	1.732568
1.466000	1.732887
1.466500	1.734161
1.467000	1.733843
1.467500	1.736072
1.468000	1.734798
1.468500	1.734798
1.469000	1.732887
1.469500	1.731931
1.470000	1.731613
1.470500	1.731613
1.471000	1.732568
1.471500	1.733205
1.472000	1.733205
1.472500	1.732250
1.473000	1.730976
1.473500	1.730657
1.474000	1.730976
1.474500	1.733205
1.475000	1.733524
1.475500	1.735435
1.476000	1.734161
1.476500	1.733205
1.477000	1.732250
1.477500	1.731931
1.478000	1.733843
1.478500	1.735754
1.479000	1.735435
1.479500	1.735435
1.480000	1.733843
1.480500	1.733205
1.481000	1.731931
1.481500	1.731931
1.482000	1.731931
1.482500	1.733205
1.483000	1.733524
1.483500	1.733524
1.484000	1.732250
1.484500	1.730976
1.485000	1.730657
1.485500	1.731613
1.486000	1.732887
1.486500	1.733205
1.487000	1.734480
1.487500	1.733524
1.488000	1.733205
1.488500	1.732250
1.489000	1.731613
1.489500	1.732887
1.490000	1.734161
1.490500	1.734798
1.491000	1.734798
1.491500	1.733843
1.492000	1.733524
1.492500	1.731294
1.493000	1.731613
1.493500	1.731613
1.494000	1.733205
1.494500	1.733205
1.495000	1.732568
1.495500	1.731931
1.496000	1.730339
1.496500	1.730020
1.497000	1.730976
1.497500	1.731931
1.498000	1.732250
1.498500	1.732887
1.499000	1.733524
1.499500	1.733205
1.500000	1.732568
1.500500	1.731931
1.501000	1.732568
1.501500	1.735117
1.502000	1.735117
1.502500	1.734798
1.503000	1.733524
1.503500	1.732887
1.504000	1.731931
1.504500	1.732568
1.505000	1.731931
1.505500	1.732568
1.506000	1.732568
1.506500	1.733205
1.507000	1.731294
1.507500	1.730339
1.508000	1.729383
1.508500	1.730976
1.509000	1.732250
1.509500	1.733205
1.510000	1.733205
1.510500	1.733524
1.511000	1.733524
1.511500	1.732568
1.512000	1.732568
1.512500	1.732887
1.513000	1.734480
1.513500	1.735754
1.514000	1.734798
1.514500	1.734161
1.515000	1.732887
1.515500	1.733205
1.516000	1.731613
1.516500	1.732568
1.517000	1.733843
1.517500	1.734480
1.518000	1.733524
1.518500	1.732568
1.519000	1.730976
1.519500	1.730339
1.520000	1.731294
1.520500	1.731931
1.521000	1.732887
1.521500	1.734480
1.522000	1.734480
1.522500	1.733205
1.523000	1.733205
1.523500	1.733205
1.524000	1.734798
1.524500	1.734798
1.525000	1.736709
1.525500	1.736072
1.526000	1.734798
1.526500	1.733205
1.527000	1.733524
1.527500	1.733205
1.528000	1.732250
1.528500	1.733524
1.529000	1.733843
1.529500	1.734161
1.530000	1.732887
1.530500	1.731931
1.531000	1.730657
1.531500	1.731294
1.532000	1.732250
1.532500	1.733524
1.533000	1.733524
1.533500	1.734480
1.534000	1.734480
1.534500	1.734161
1.535000	1.733524
1.535500	1.733205
1.536000	1.734161
1.536500	1.735117
1.537000	1.736709
1.537500	1.735117
1.538000	1.733524
1.538500	1.732887
1.539000	1.732568
1.539500	1.731931
1.540000	1.732887
1.540500	1.732887
1.541000	1.734161
1.541500	1.733524
1.542000	1.731613
1.542500	1.730657
1.543000	1.730657
1.543500	1.731613
1.544000	1.732568
1.544500	1.733205
1.545000	1.734480
1.545500	1.734480
1.546000	1.733843
1.546500	1.733205
1.547000	1.732887
1.547500	1.733205
1.548000	1.734480
1.548500	1.735754
1.549000	1.736072
1.549500	1.734161
1.550000	1.733524
1.550500	1.732250
1.551000	1.731613
1.551500	1.732250
1.552000	1.732887
1.552500	1.733524
1.553000	1.733524
1.553500	1.732887
1.554000	1.731613
1.554500	1.730657
1.555000	1.730976
1.555500	1.732250
1.556000	1.733524
1.556500	1.733524
1.557000	1.733524
1.557500	1.733205
1.558000	1.733205
1.558500	1.732250
1.559000	1.733205
1.559500	1.734480
1.560000	1.735435
1.560500	1.734480
1.561000	1.734161
1.561500	1.733524
1.562000	1.731613
1.562500	1.731931
1.563000	1.731294
1.563500	1.732568
1.564000	1.732568
1.564500	1.733524
1.565000	1.732250
1.565500	1.732250
1.566000	1.729702
1.566500	1.730339
1.567000	1.730339
1.567500	1.732250
1.568000	1.733843
1.568500	1.733843
1.569000	1.733524
1.569500	1.732568
1.570000	1.732887
1.570500	1.731613
1.571000	1.733205
1.571500	1.734480
1.572000	1.735435
1.572500	1.734480
1.573000	1.734161
1.573500	1.732568
1.574000	1.732250
1.574500	1.731294
1.575000	1.731931
1.575500	1.732568
1.576000	1.733205
1.576500	1.733205
1.577000	1.731613
1.577500	1.730657
1.578000	1.729702
1.578500	1.731613
1.579000	1.731613
1.579500	1.732887
1.580000	1.733524
1.580500	1.733524
1.581000	1.732887
1.581500	1.733205
1.582000	1.732568
1.582500	1.732887
1.583000	1.734480
1.583500	1.734798
1.584000	1.735117
1.584500	1.733843
1.585000	1.732887
1.585500	1.731294
1.586000	1.732250
1.586500	1.731931
1.587000	1.732250
1.587500	1.732887
1.588000	1.733205
1.588500	1.731613
1.589000	1.730976
1.589500	1.730339
1.590000	1.730657
1.590500	1.732250
1.591000	1.733524
1.591500	1.733524
1.592000	1.733205
1.592500	1.733205
1.593000	1.732887
1.593500	1.731931
1.594000	1.732568
1.594500	1.733843
1.595000	1.735754
1.595500	1.734480
1.596000	1.733524
1.596500	1.731931
1.597000	1.731294
1.597500	1.730657
1.598000	1.731294
1.598500	1.732568
1.599000	1.733524
1.599500	1.732568
1.600000	1.732568
1.600500	1.730339
1.601000	1.730020
1.601500	1.730339
1.602000	1.731294
1.602500	1.732887
1.603000	1.733843
1.603500	1.733843
1.604000	1.732887
1.604500	1.732887
1.605000	1.731931
1.605500	1.732250
1.606000	1.732887
1.606500	1.735117
1.607000	1.734798
1.607500	1.733205
1.608000	1.733205
1.608500	1.731613
1.609000	1.731613
1.609500	1.731613
1.610000	1.731613
1.610500	1.732887
1.611000	1.732568
1.611500	1.732568
1.612000	1.730657
1.612500	1.729702
1.613000	1.730339
1.613500	1.731613
1.614000	1.732568
1.614500	1.731931
1.615000	1.732887
1.615500	1.732887
1.616000	1.731931
1.616500	1.731931
1.617000	1.731931
1.617500	1.733843
1.618000	1.735117
1.618500	1.735435
1.619000	1.734161
1.619500	1.732887
1.620000	1.732887
1.620500	1.731294
1.621000	1.730976
1.621500	1.732568
1.622000	1.732250
1.622500	1.732887
1.623000	1.732887
1.623500	1.730976
1.624000	1.730339
1.624500	1.730657
1.625000	1.732250
1.625500	1.732568
1.626000	1.733205
1.626500	1.733205
1.627000	1.733205
1.627500	1.732250
1.628000	1.731931
1.628500	1.732250
1.629000	1.734161
1.629500	1.734798
1.630000	1.735435
1.630500	1.734798
1.631000	1.733205
1.631500	1.732887
1.632000	1.732250
1.632500	1.731931
1.633000	1.732568
1.633500	1.732887
1.634000	1.733843
1.634500	1.732250
1.635000	1.730976
1.635500	1.730976
1.636000	1.730976
1.636500	1.732250
1.637000	1.733843
1.637500	1.733524
1.638000	1.733843
1.638500	1.734161
1.639000	1.733205
1.639500	1.732568
1.640000	1.733524
1.640500	1.734161
1.641000	1.735435
1.641500	1.735754
1.642000	1.734798
1.642500	1.733524
1.643000	1.732887
1.643500	1.732250
1.644000	1.731931
1.644500	1.732568
1.645000	1.733843
1.645500	1.733524
1.646000	1.733205
1.646500	1.731931
1.647000	1.730339
1.647500	1.730339
1.648000	1.731613
1.648500	1.732568
1.649000	1.733524
1.649500	1.733843
1.650000	1.733205
1.650500	1.733843
1.651000	1.732250
1.651500	1.733524
1.652000	1.732250
1.652500	1.735117
1.653000	1.735754
1.653500	1.734798
1.654000	1.733205
1.654500	1.733205
1.655000	1.730976
1.655500	1.731931
1.656000	1.732568
1.656500	1.732568
1.657000	1.733524
1.657500	1.733205
1.658000	1.731613
1.658500	1.730339
1.659000	1.729383
1.659500	1.730976
1.660000	1.731931
1.660500	1.731931
1.661000	1.733205
1.661500	1.733205
1.662000	1.732887
1.662500	1.732568
1.663000	1.730657
1.663500	1.732250
1.664000	1.733524
1.664500	1.735117
1.665000	1.734161
1.665500	1.733205
1.666000	1.732250
1.666500	1.732250
1.667000	1.731294
1.667500	1.731294
1.668000	1.732250
1.668500	1.731931
1.669000	1.732568
1.669500	1.731613
1.670000	1.730657
1.670500	1.729064
1.671000	1.730339
1.671500	1.731294
1.672000	1.732568
1.672500	1.733205
1.673000	1.733205
1.673500	1.732568
1.674000	1.733205
1.674500	1.732568
1.675000	1.732250
1.675500	1.732568
1.676000	1.734798
1.676500	1.735117
1.677000	1.734161
1.677500	1.733205
1.678000	1.731613
1.678500	1.731294
1.679000	1.731613
1.679500	1.731931
1.680000	1.732568
1.680500	1.732887
1.681000	1.732887
1.681500	1.730339
1.682000	1.730020
1.682500	1.729064
1.683000	1.730976
1.683500	1.732887
1.684000	1.732250
1.684500	1.733205
1.685000	1.733843
1.685500	1.732568
1.686000	1.732250
1.686500	1.731931
1.687000	1.732887
1.687500	1.734480
1.688000	1.735117
1.688500	1.734798
1.689000	1.733843
1.689500	1.732887
1.690000	1.731613
1.690500	1.731613
1.691000	1.731931
1.691500	1.732568
1.692000	1.732568
1.692500	1.733843
1.693000	1.731931
1.693500	1.730339
1.694000	1.729702
1.694500	1.731931
1.695000	1.731931
1.695500	1.732887
1.696000	1.734161
1.696500	1.734161
1.697000	1.732887
1.697500	1.732568
1.698000	1.731613
1.698500	1.732250
1.699000	1.734161
1.699500	1.735117
1.700000	1.734798
1.700500	1.733524
1.701000	1.732887
1.701500	1.732568
1.702000	1.730657
1.702500	1.731613
1.703000	1.732568
1.703500	1.733205
1.704000	1.733205
1.704500	1.731613
1.705000	1.731294
1.705500	1.730020
1.706000	1.730657
1.706500	1.732887
1.707000	1.732568
1.707500	1.733524
1.708000	1.733524
1.708500	1.733205
1.709000	1.733205
1.709500	1.731931
1.710000	1.732887
1.710500	1.734798
1.711000	1.735435
1.711500	1.734798
1.712000	1.734480
1.712500	1.733524
1.713000	1.731294
1.713500	1.731931
1.714000	1.731294
1.714500	1.732568
1.715000	1.732887
1.715500	1.733524
1.716000	1.732250
1.716500	1.730657
1.717000	1.730020
1.717500	1.730976
1.718000	1.732568
1.718500	1.732887
1.719000	1.733843
1.719500	1.734161
1.720000	1.733524
1.720500	1.732568
1.721000	1.732250
1.721500	1.733205
1.722000	1.734161
1.722500	1.735117
1.723000	1.735754
1.723500	1.734161
1.724000	1.732568
1.724500	1.732568
1.725000	1.731931
1.725500	1.731931
1.726000	1.733524
1.726500	1.733843
1.727000	1.734161
1.727500	1.732568
1.728000	1.730657
1.728500	1.730339
1.729000	1.731294
1.729500	1.731931
1.730000	1.732568
1.730500	1.734161
1.731000	1.734161
1.731500	1.733524
1.732000	1.732887
1.732500	1.732887
1.733000	1.733205
1.733500	1.734480
1.734000	1.735754
1.734500	1.735435
1.735000	1.734161
1.735500	1.733205
1.736000	1.733205
1.736500	1.732568
1.737000	1.732568
1.737500	1.733205
1.738000	1.733524
1.738500	1.733843
1.739000	1.733205
1.739500	1.731294
1.740000	1.730657
1.740500	1.731294
1.741000	1.732887
1.741500	1.732887
1.742000	1.733524
1.742500	1.734161
1.743000	1.734161
1.743500	1.733843
1.744000	1.732568
1.744500	1.732568
1.745000	1.734161
1.745500	1.735754
1.746000	1.736072
1.746500	1.735435
1.747000	1.733843
1.747500	1.733524
1.748000	1.732568
1.748500	1.731931
1.749000	1.732887
1.749500	1.733843
1.750000	1.733205
1.750500	1.733205
1.751000	1.732250
1.751500	1.730339
1.752000	1.731613
1.752500	1.731294
1.753000	1.732568
1.753500	1.733843
1.754000	1.734161
1.754500	1.733843
1.755000	1.733843
1.755500	1.732887
1.756000	1.732887
1.756500	1.732887
1.757000	1.733524
1.757500	1.735754
1.758000	1.735435
1.758500	1.734798
1.759000	1.734161
1.759500	1.732887
1.760000	1.732887
1.760500	1.732568
1.761000	1.732568
1.761500	1.734161
1.762000	1.734161
1.762500	1.732887
1.763000	1.731294
1.763500	1.730657
1.764000	1.731931
1.764500	1.732568
1.765000	1.733524
1.765500	1.733524
1.766000	1.733843
1.766500	1.734480
1.767000	1.733205
1.767500	1.733524
1.768000	1.732887
1.768500	1.733524
1.769000	1.735435
1.769500	1.735435
1.770000	1.734161
1.770500	1.733524
1.771000	1.733524
1.771500	1.732250
1.772000	1.732568
1.772500	1.732568
1.773000	1.733205
1.773500	1.734161
1.774000	1.733205
1.774500	1.731931
1.775000	1.730657
1.775500	1.731294
1.776000	1.731294
1.776500	1.732887
1.777000	1.732568
1.777500	1.733205
1.778000	1.733524
1.778500	1.733524
1.779000	1.732250
1.779500	1.731931
1.780000	1.732887
1.780500	1.733843
1.781000	1.735117
1.781500	1.735117
1.782000	1.733524
1.782500	1.732887
1.783000	1.731931
1.783500	1.731613
1.784000	1.732250
1.784500	1.733205
1.785000	1.733524
1.785500	1.733524
1.786000	1.732250
1.786500	1.731294
1.787000	1.730339
1.787500	1.730339
1.788000	1.732250
1.788500	1.732887
1.789000	1.732887
1.789500	1.733524
1.790000	1.733205
1.790500	1.732250
1.791000	1.732250
1.791500	1.732568
1.792000	1.733843
1.792500	1.734480
1.793000	1.735117
1.793500	1.735117
1.794000	1.733205
1.794500	1.732250
1.795000	1.731613
1.795500	1.731613
1.796000	1.732887
1.796500	1.733205
1.797000	1.732887
1.797500	1.733205
1.798000	1.730976
1.798500	1.730339
1.799000	1.730976
1.799500	1.731613
1.800000	1.732887
1.800500	1.733524
1.801000	1.733843
1.801500	1.733524
1.802000	1.732568
1.802500	1.732568
1.803000	1.732887
1.803500	1.733843
1.804000	1.735117
1.804500	1.736391
1.805000	1.734161
1.805500	1.734161
1.806000	1.734161
1.806500	1.732887
1.807000	1.731613
1.807500	1.732568
1.808000	1.733843
1.808500	1.733524
1.809000	1.733843
1.809500	1.731294
1.810000	1.731931
1.810500	1.730976
1.811000	1.731294
1.811500	1.732887
1.812000	1.733524
1.812500	1.733843
1.813000	1.734161
1.813500	1.733843
1.814000	1.732887
1.814500	1.733524
1.815000	1.733524
1.815500	1.734161
1.816000	1.735435
1.816500	1.735754
1.817000	1.734798
1.817500	1.733843
1.818000	1.733843
1.818500	1.732250
1.819000	1.733205
1.819500	1.733524
1.820000	1.733205
1.820500	1.733524
1.821000	1.732250
1.821500	1.730339
1.822000	1.730020
1.822500	1.731931
1.823000	1.732887
1.823500	1.733205
1.824000	1.733205
1.824500	1.734161
1.825000	1.734161
1.825500	1.733524
1.826000	1.732568
1.826500	1.733205
1.827000	1.734798
1.827500	1.735117
1.828000	1.735117
1.828500	1.734161
1.829000	1.733205
1.829500	1.732568
1.830000	1.731931
1.830500	1.732568
1.831000	1.732887
1.831500	1.734161
1.832000	1.732568
1.832500	1.732568
1.833000	1.731931
1.833500	1.730976
1.834000	1.731613
1.834500	1.732250
1.835000	1.733205
1.835500	1.733843
1.836000	1.734161
1.836500	1.733205
1.837000	1.732568
1.837500	1.732568
1.838000	1.733205
1.838500	1.734480
1.839000	1.735117
1.839500	1.735435
1.840000	1.735117
1.840500	1.732887
1.841000	1.731931
1.841500	1.732250
1.842000	1.732250
1.842500	1.733205
1.843000	1.733843
1.843500	1.733205
1.844000	1.732568
1.844500	1.730976
1.845000	1.730339
1.845500	1.730976
1.846000	1.732568
1.846500	1.732887
1.847000	1.733843
1.847500	1.733205
1.848000	1.733205
1.848500	1.732887
1.849000	1.732887
1.849500	1.732568
1.850000	1.733843
1.850500	1.734161
1.851000	1.735754
1.851500	1.734480
1.852000	1.734161
1.852500	1.733205
1.853000	1.732250
1.853500	1.731613
1.854000	1.733205
1.854500	1.733205
1.855000	1.733205
1.855500	1.733524
1.856000	1.731931
1.856500	1.730976
1.857000	1.730020
1.857500	1.731294
1.858000	1.732568
1.858500	1.732568
1.859000	1.732887
1.859500	1.734480
1.860000	1.733205
1.860500	1.733524
1.861000	1.732887
1.861500	1.732887
1.862000	1.733205
1.862500	1.735754
1.863000	1.734798
1.863500	1.734480
1.864000	1.733205
1.864500	1.732250
1.865000	1.731931
1.865500	1.731931
1.866000	1.732250
1.866500	1.733205
1.867000	1.734161
1.867500	1.732250
1.868000	1.731294
1.868500	1.729702
1.869000	1.730339
1.869500	1.730976
1.870000	1.731613
1.870500	1.733205
1.871000	1.733843
1.871500	1.734161
1.872000	1.731294
1.872500	1.731931
1.873000	1.732568
1.873500	1.732568
1.874000	1.734161
1.874500	1.735754
1.875000	1.735435
1.875500	1.734161
1.876000	1.732887
1.876500	1.731931
1.877000	1.731931
1.877500	1.732568
1.878000	1.732887
1.878500	1.733524
1.879000	1.734161
1.879500	1.731931
1.880000	1.731294
1.880500	1.730339
1.881000	1.730339
1.881500	1.731931
1.882000	1.733524
1.882500	1.734161
1.883000	1.733524
1.883500	1.734161
1.884000	1.733205
1.884500	1.732568
1.885000	1.733524
1.885500	1.733524
1.886000	1.735117
1.886500	1.735435
1.887000	1.734798
1.887500	1.734161
1.888000	1.732887
1.888500	1.731931
1.889000	1.731931
1.889500	1.733205
1.890000	1.733524
1.890500	1.733524
1.891000	1.733843
1.891500	1.732250
1.892000	1.730976
1.892500	1.730976
1.893000	1.731613
1.893500	1.732887
1.894000	1.732568
1.894500	1.733843
1.895000	1.733205
1.895500	1.733205
1.896000	1.732887
1.896500	1.732887
1.897000	1.732887
1.897500	1.734161
1.898000	1.736391
1.898500	1.735754
1.899000	1.733524
1.899500	1.733205
1.900000	1.733843
1.900500	1.731931
1.901000	1.731931
1.901500	1.732250
1.902000	1.732887
1.902500	1.734480
1.903000	1.732568
1.903500	1.730976
1.904000	1.730339
1.904500	1.730020
1.905000	1.731613
1.905500	1.732568
1.906000	1.733205
1.906500	1.733524
1.907000	1.733205
1.907500	1.733205
1.908000	1.732568
1.908500	1.732568
1.909000	1.732887
1.909500	1.734798
1.910000	1.735754
1.910500	1.735117
1.911000	1.733843
1.911500	1.732887
1.912000	1.734798
1.912500	1.732250
1.913000	1.732250
1.913500	1.732887
1.914000	1.732887
1.914500	1.732568
1.915000	1.732250
1.915500	1.730657
1.916000	1.730339
1.916500	1.730657
1.917000	1.732250
1.917500	1.733524
1.918000	1.733843
1.918500	1.733843
1.919000	1.733524
1.919500	1.732568
1.920000	1.732568
1.920500	1.732250
1.921000	1.734161
1.921500	1.734798
1.922000	1.735435
1.922500	1.734798
1.923000	1.733205
1.923500	1.732250
1.924000	1.733205
1.924500	1.731931
1.925000	1.732887
1.925500	1.733205
1.926000	1.733843
1.926500	1.731931
1.927000	1.730976
1.927500	1.731294
1.928000	1.730657
1.928500	1.731931
1.929000	1.733524
1.929500	1.733524
1.930000	1.734161
1.930500	1.733524
1.931000	1.733205
1.931500	1.733205
1.932000	1.732568
1.932500	1.733205
1.933000	1.735117
1.933500	1.735754
1.934000	1.735435
1.934500	1.733524
1.935000	1.733205
1.935500	1.732568
1.936000	1.732250
1.936500	1.733524
1.937000	1.733843
1.937500	1.733524
1.938000	1.732887
1.938500	1.731931
1.939000	1.730657
1.939500	1.730339
1.940000	1.731931
1.940500	1.733205
1.941000	1.733205
1.941500	1.733843
1.942000	1.734480
1.942500	1.733205
1.943000	1.732568
1.943500	1.732568
1.944000	1.734161
1.944500	1.735117
1.945000	1.736072
1.945500	1.735117
1.946000	1.734161
1.946500	1.733205
1.947000	1.732568
1.947500	1.731931
1.948000	1.732887
1.948500	1.732887
1.949000	1.733524
1.949500	1.733205
1.950000	1.731931
1.950500	1.730976
1.951000	1.731294
1.951500	1.732568
1.952000	1.732568
1.952500	1.733843
1.953000	1.734161
1.953500	1.734161
1.954000	1.733843
1.954500	1.732568
1.955000	1.733205
1.955500	1.733524
1.956000	1.735117
1.956500	1.735754
1.957000	1.735117
1.957500	1.734480
1.958000	1.732887
1.958500	1.732250
1.959000	1.731931
1.959500	1.732568
1.960000	1.732250
1.960500	1.733205
1.961000	1.733524
1.961500	1.732250
1.962000	1.731294
1.962500	1.730339
1.963000	1.731931
1.963500	1.731613
1.964000	1.733524
1.964500	1.733843
1.965000	1.734161
1.965500	1.733524
1.966000	1.732250
1.966500	1.732568
1.967000	1.732250
1.967500	1.734480
1.968000	1.735117
1.968500	1.734798
1.969000	1.733205
1.969500	1.732887
1.970000	1.732568
1.970500	1.732568
1.971000	1.731294
1.971500	1.731931
1.972000	1.733524
1.972500	1.733205
1.973000	1.733205
1.973500	1.730339
1.974000	1.730339
1.974500	1.730020
1.975000	1.732250
1.975500	1.733843
1.976000	1.733843
1.976500	1.733524
1.977000	1.733843
1.977500	1.732568
1.978000	1.732887
1.978500	1.732887
1.979000	1.733524
1.979500	1.734798
1.980000	1.735435
1.980500	1.734798
1.981000	1.733205
1.981500	1.732568
1.982000	1.732250
1.982500	1.732568
1.983000	1.732250
1.983500	1.733524
1.984000	1.733205
1.984500	1.733843
1.985000	1.731931
1.985500	1.731294
1.986000	1.730339
1.986500	1.731931
1.987000	1.732887
1.987500	1.733524
1.988000	1.734480
1.988500	1.733524
1.989000	1.733843
1.989500	1.732887
1.990000	1.733205
1.990500	1.732887
1.991000	1.735435
1.991500	1.735435
1.992000	1.735435
1.992500	1.735117
1.993000	1.732568
1.993500	1.732250
1.994000	1.732568
1.994500	1.732887
1.995000	1.733205
1.995500	1.734161
1.996000	1.733524
1.996500	1.733205
1.997000	1.732250
1.997500	1.730657
1.998000	1.731613
1.998500	1.731613
1.999000	1.733205
1.999500	1.733843
2.000000	1.733843
2.000500	1.734161
2.001000	1.733205
2.001500	1.733524
2.002000	1.733524
2.002500	1.735117
2.003000	1.736072
2.003500	1.735754
2.004000	1.734798
2.004500	1.734480
2.005000	1.733843
2.005500	1.732568
2.006000	1.732250
2.006500	1.732887
2.007000	1.733524
2.007500	1.733843
2.008000	1.733524
2.008500	1.732568
2.009000	1.730976
2.009500	1.730976
2.010000	1.732250
2.010500	1.733205
2.011000	1.733205
2.011500	1.733843
2.012000	1.735117
2.012500	1.733843
2.013000	1.732568
2.013500	1.732887
2.014000	1.734480
2.014500	1.735117
2.015000	1.735435
2.015500	1.735435
2.016000	1.733524
2.016500	1.732887
2.017000	1.732568
2.017500	1.731931
2.018000	1.733205
2.018500	1.732568
2.019000	1.733205
2.019500	1.733205
2.020000	1.732887
2.020500	1.731294
2.021000	1.730020
2.021500	1.731613
2.022000	1.732887
2.022500	1.733205
2.023000	1.734480
2.023500	1.734480
2.024000	1.733524
2.024500	1.732568
2.025000	1.733205
2.025500	1.732887
2.026000	1.734480
2.026500	1.736391
2.027000	1.735117
2.027500	1.733524
2.028000	1.732568
2.028500	1.731613
2.029000	1.732250
2.029500	1.731931
2.030000	1.732250
2.030500	1.733843
2.031000	1.734161
2.031500	1.732568
2.032000	1.732250
2.032500	1.730657
2.033000	1.730976
2.033500	1.732887
2.034000	1.733205
2.034500	1.734798
2.035000	1.734161
2.035500	1.734480
2.036000	1.733843
2.036500	1.732568
2.037000	1.733524
2.037500	1.735117
2.038000	1.735754
2.038500	1.735117
2.039000	1.735117
2.039500	1.734161
2.040000	1.733205
2.040500	1.731931
2.041000	1.731931
2.041500	1.733205
2.042000	1.733843
2.042500	1.734798
2.043000	1.732887
2.043500	1.731294
2.044000	1.731613
2.044500	1.731613
2.045000	1.732887
2.045500	1.733205
2.046000	1.733843
2.046500	1.734161
2.047000	1.733843
2.047500	1.733524
2.048000	1.732568
2.048500	1.733524
2.049000	1.733843
2.049500	1.734798
2.050000	1.735754
2.050500	1.734798
2.051000	1.733843
2.051500	1.732568
2.052000	1.733843
2.052500	1.732250
2.053000	1.732568
2.053500	1.733205
2.054000	1.733524
2.054500	1.732887
2.055000	1.731294
2.055500	1.730339
2.056000	1.730020
2.056500	1.731294
2.057000	1.733205
2.057500	1.734161
2.058000	1.734798
2.058500	1.733524
2.059000	1.733524
2.059500	1.733205
2.060000	1.732250
2.060500	1.733843
2.061000	1.735435
2.061500	1.735435
2.062000	1.735117
2.062500	1.734480
2.063000	1.733205
2.063500	1.732568
2.064000	1.731613
2.064500	1.732250
2.065000	1.732568
2.065500	1.733843
2.066000	1.732568
2.066500	1.731931
2.067000	1.731613
2.067500	1.730657
2.068000	1.731931
2.068500	1.732887
2.069000	1.733524
2.069500	1.733524
2.070000	1.732250
2.070500	1.733524
2.071000	1.732250
2.071500	1.732887
2.072000	1.733524
2.072500	1.735435
2.073000	1.735754
2.073500	1.735435
2.074000	1.733843
2.074500	1.732568
2.075000	1.732887
2.075500	1.731931
2.076000	1.732568
2.076500	1.732568
2.077000	1.733524
2.077500	1.733843
2.078000	1.733205
2.078500	1.731294
2.079000	1.730339
2.079500	1.730976
2.080000	1.732887
2.080500	1.732250
2.081000	1.733205
2.081500	1.733205
2.082000	1.733524
2.082500	1.733524
2.083000	1.732250
2.083500	1.733205
2.084000	1.735117
2.084500	1.735754
2.085000	1.735754
2.085500	1.734161
2.086000	1.733205
2.086500	1.732250
2.087000	1.732887
2.087500	1.732250
2.088000	1.732250
2.088500	1.733843
2.089000	1.734161
2.089500	1.733205
2.090000	1.731613
2.090500	1.730657
2.091000	1.731294
2.091500	1.732887
2.092000	1.732568
2.092500	1.733524
2.093000	1.734161
2.093500	1.734798
2.094000	1.733524
2.094500	1.732887
2.095000	1.732887
2.095500	1.733524
2.096000	1.735435
2.096500	1.735435
2.097000	1.735117
2.097500	1.735117
2.098000	1.732887
2.098500	1.733524
2.099000	1.733524
2.099500	1.732568
2.100000	1.733205
2.100500	1.734480
2.101000	1.734161
2.101500	1.731931
2.102000	1.731613
2.102500	1.731294
2.103000	1.732568
2.103500	1.733843
2.104000	1.733843
2.104500	1.733843
2.105000	1.735435
2.105500	1.734480
2.106000	1.732887
2.106500	1.731931
2.107000	1.733524
2.107500	1.735435
2.108000	1.735435
2.108500	1.735435
2.109000	1.734480
2.109500	1.733524
2.110000	1.733205
2.110500	1.732887
2.111000	1.732887
2.111500	1.733843
2.112000	1.733205
2.112500	1.734161
2.113000	1.732568
2.113500	1.731613
2.114000	1.730020
2.114500	1.731294
2.115000	1.732568
2.115500	1.733524
2.116000	1.733843
2.116500	1.734161
2.117000	1.734480
2.117500	1.732568
2.118000	1.732568
2.118500	1.733205
2.119000	1.734161
2.119500	1.735435
2.120000	1.735754
2.120500	1.734480
2.121000	1.733205
2.121500	1.733205
2.122000	1.731931
2.122500	1.730976
2.123000	1.732887
2.123500	1.732568
2.124000	1.733205
2.124500	1.732887
2.125000	1.731294
2.125500	1.730976
2.126000	1.730339
2.126500	1.732250
2.127000	1.731931
2.127500	1.733205
2.128000	1.733524
2.128500	1.733524
2.129000	1.734161
2.129500	1.731613
2.130000	1.731931
2.130500	1.733205
2.131000	1.734480
2.131500	1.735435
2.132000	1.735754
2.132500	1.733524
2.133000	1.732568
2.133500	1.731931
2.134000	1.732250
2.134500	1.731931
2.135000	1.732568
2.135500	1.733205
2.136000	1.732568
2.136500	1.732568
2.137000	1.730976
2.137500	1.730339
2.138000	1.730657
2.138500	1.731613
2.139000	1.731931
2.139500	1.733205
2.140000	1.733524
2.140500	1.733205
2.141000	1.732887
2.141500	1.731931
2.142000	1.732887
2.142500	1.733843
2.143000	1.735117
2.143500	1.735117
2.144000	1.733843
2.144500	1.732887
2.145000	1.733524
2.145500	1.731931
2.146000	1.731613
2.146500	1.731931
2.147000	1.733524
2.147500	1.733524
2.148000	1.731931
2.148500	1.730976
2.149000	1.730339
2.149500	1.730020
2.150000	1.731613
2.150500	1.732568
2.151000	1.733524
2.151500	1.733205
2.152000	1.734161
2.152500	1.733205
2.153000	1.732250
2.153500	1.731613
2.154000	1.733524
2.154500	1.734161
2.155000	1.735435
2.155500	1.734798
2.156000	1.733843
2.156500	1.732887
2.157000	1.733843
2.157500	1.731931
2.158000	1.732568
2.158500	1.733205
2.159000	1.734161
2.159500	1.733524
2.160000	1.732250
2.160500	1.730657
2.161000	1.730657
2.161500	1.731931
2.162000	1.732250
2.162500	1.733843
2.163000	1.734161
2.163500	1.734480
2.164000	1.733524
2.164500	1.733524
2.165000	1.733205
2.165500	1.732568
2.166000	1.735435
2.166500	1.735754
2.167000	1.735754
2.167500	1.735117
2.168000	1.733843
2.168500	1.732250
2.169000	1.730339
2.169500	1.733205
2.170000	1.734480
2.170500	1.733843
2.171000	1.733205
2.171500	1.732568
2.172000	1.732250
2.172500	1.730657
2.173000	1.732250
2.173500	1.733205
2.174000	1.733205
2.174500	1.733524
2.175000	1.734161
2.175500	1.734161
2.176000	1.733843
2.176500	1.733205
2.177000	1.733205
2.177500	1.734480
2.178000	1.736072
2.178500	1.736391
2.179000	1.735754
2.179500	1.733524
2.180000	1.733205
2.180500	1.733205
2.181000	1.733205
2.181500	1.733205
2.182000	1.733843
2.182500	1.734798
2.183000	1.734161
2.183500	1.732250
2.184000	1.731613
2.184500	1.731931
2.185000	1.733205
2.185500	1.734161
2.186000	1.733843
2.186500	1.734480
2.187000	1.733524
2.187500	1.733205
2.188000	1.732568
2.188500	1.733205
2.189000	1.734798
2.189500	1.735435
2.190000	1.735435
2.190500	1.734480
2.191000	1.734161
2.191500	1.733524
2.192000	1.732568
2.192500	1.732568
2.193000	1.731931
2.193500	1.732887
2.194000	1.733843
2.194500	1.733205
2.195000	1.731931
2.195500	1.731294
2.196000	1.730020
2.196500	1.732250
2.197000	1.731931
2.197500	1.733524
2.198000	1.733524
2.198500	1.733843
2.199000	1.733843
2.199500	1.732250
2.200000	1.732887
2.200500	1.733205
2.201000	1.733843
2.201500	1.735435
2.202000	1.734798
2.202500	1.733524
2.203000	1.732887
2.203500	1.731613
2.204000	1.732568
2.204500	1.732250
2.205000	1.732568
2.205500	1.732568
2.206000	1.732887
2.206500	1.731931
2.207000	1.730020
2.207500	1.729702
2.208000	1.730976
2.208500	1.731294
2.209000	1.731931
2.209500	1.732887
2.210000	1.734161
2.210500	1.733524
2.211000	1.732250
2.211500	1.732568
2.212000	1.731931
2.212500	1.733205
2.213000	1.735117
2.213500	1.734480
2.214000	1.734161
2.214500	1.732250
2.215000	1.732887
2.215500	1.731931
2.216000	1.731931
2.216500	1.732250
2.217000	1.733843
2.217500	1.733524
2.218000	1.732887
2.218500	1.731294
2.219000	1.730020
2.219500	1.730339
2.220000	1.731931
2.220500	1.732250
2.221000	1.733205
2.221500	1.732568
2.222000	1.734480
2.222500	1.732887
2.223000	1.732887
2.223500	1.732887
2.224000	1.733843
2.224500	1.735435
2.225000	1.735754
2.225500	1.734798
2.226000	1.733205
2.226500	1.732250
2.227000	1.731931
2.227500	1.732250
2.228000	1.732568
2.228500	1.732250
2.229000	1.733843
2.229500	1.733843
2.230000	1.730976
2.230500	1.730657
2.231000	1.730020
2.231500	1.730976
2.232000	1.732568
2.232500	1.732568
2.233000	1.733205
2.233500	1.732887
2.234000	1.732568
2.234500	1.732568
2.235000	1.732887
2.235500	1.733205
2.236000	1.734480
2.236500	1.735754
2.237000	1.734798
2.237500	1.734480
2.238000	1.733205
2.238500	1.732250
2.239000	1.732568
2.239500	1.731613
2.240000	1.731613
2.240500	1.732250
2.241000	1.732887
2.241500	1.733843
2.242000	1.730339
2.242500	1.730339
2.243000	1.730020
2.243500	1.730976
2.244000	1.732568
2.244500	1.733524
2.245000	1.732887
2.245500	1.733205
2.246000	1.733524
2.246500	1.732568
2.247000	1.730976
2.247500	1.732887
2.248000	1.733843
2.248500	1.734798
2.249000	1.735117
2.249500	1.733524
2.250000	1.733205
2.250500	1.732568
2.251000	1.731613
2.251500	1.731294
2.252000	1.732250
2.252500	1.732250
2.253000	1.732568
2.253500	1.731613
2.254000	1.730657
2.254500	1.730339
2.255000	1.729702
2.255500	1.731613
2.256000	1.730976
2.256500	1.732250
2.257000	1.733205
2.257500	1.733205
2.258000	1.732250
2.258500	1.731613
2.259000	1.731294
2.259500	1.732887
2.260000	1.733843
2.260500	1.734798
2.261000	1.734480
2.261500	1.733843
2.262000	1.732250
2.262500	1.731613
2.263000	1.731294
2.263500	1.731613
2.264000	1.731931
2.264500	1.732887
2.265000	1.733205
2.265500	1.731931
2.266000	1.731613
2.266500	1.730020
2.267000	1.730976
2.267500	1.731931
2.268000	1.733205
2.268500	1.733843
2.269000	1.733524
2.269500	1.734480
2.270000	1.732887
2.270500	1.732568
2.271000	1.733524
2.271500	1.733843
2.272000	1.737346
2.272500	1.735117
2.273000	1.734798
2.273500	1.732887
2.274000	1.732887
2.274500	1.731613
2.275000	1.732250
2.275500	1.732568
2.276000	1.733524
2.276500	1.733524
2.277000	1.732250
2.277500	1.731931
2.278000	1.730976
2.278500	1.730976
2.279000	1.731931
2.279500	1.732887
2.280000	1.733843
2.280500	1.734161
2.281000	1.734480
2.281500	1.733205
2.282000	1.732887
2.282500	1.733205
2.283000	1.733843
2.283500	1.735435
2.284000	1.735754
2.284500	1.735754
2.285000	1.734480
2.285500	1.734161
2.286000	1.733524
2.286500	1.732250
2.287000	1.732250
2.287500	1.733205
2.288000	1.733205
2.288500	1.733843
2.289000	1.732568
2.289500	1.730976
2.290000	1.730657
2.290500	1.731931
2.291000	1.733524
2.291500	1.733524
2.292000	1.734161
2.292500	1.734161
2.293000	1.733205
2.293500	1.733524
2.294000	1.732887
2.294500	1.733205
2.295000	1.734480
2.295500	1.735754
2.296000	1.735435
2.296500	1.735117
2.297000	1.733524
2.297500	1.732568
2.298000	1.731931
2.298500	1.731931
2.299000	1.733843
2.299500	1.733205
2.300000	1.734161
2.300500	1.732568
2.301000	1.731931
2.301500	1.730339
2.302000	1.730339
2.302500	1.731931
2.303000	1.732568
2.303500	1.733843
2.304000	1.734480
2.304500	1.733843
2.305000	1.733524
2.305500	1.732887
2.306000	1.732887
2.306500	1.733843
2.307000	1.735117
2.307500	1.736391
2.308000	1.735117
2.308500	1.734161
2.309000	1.733524
2.309500	1.732568
2.310000	1.732887
2.310500	1.731931
2.311000	1.733205
2.311500	1.733843
2.312000	1.734161
2.312500	1.732887
2.313000	1.731931
2.313500	1.731613
2.314000	1.731294
2.314500	1.732887
2.315000	1.733524
2.315500	1.733843
2.316000	1.734161
2.316500	1.733843
2.317000	1.733205
2.317500	1.732568
2.318000	1.733524
2.318500	1.735117
2.319000	1.735435
2.319500	1.735754
2.320000	1.734798
2.320500	1.733205
2.321000	1.732887
2.321500	1.732887
2.322000	1.731931
2.322500	1.732887
2.323000	1.734161
2.323500	1.734161
2.324000	1.732887
2.324500	1.732568
2.325000	1.731294
2.325500	1.731613
2.326000	1.733524
2.326500	1.733205
2.327000	1.733843
2.327500	1.735435
2.328000	1.733524
2.328500	1.733843
2.329000	1.733205
2.329500	1.733205
2.330000	1.734161
2.330500	1.735117
2.331000	1.735754
2.331500	1.735435
2.332000	1.734798
2.332500	1.734161
2.333000	1.733524
2.333500	1.731613
2.334000	1.733524
2.334500	1.733843
2.335000	1.733524
2.335500	1.734480
2.336000	1.733205
2.336500	1.731294
2.337000	1.731931
2.337500	1.731931
2.338000	1.733205
2.338500	1.733843
2.339000	1.734161
2.339500	1.734798
2.340000	1.732887
2.340500	1.733524
2.341000	1.733205
2.341500	1.733205
2.342000	1.735435
2.342500	1.735435
2.343000	1.735435
2.343500	1.734161
2.344000	1.733205
2.344500	1.733524
2.345000	1.732568
2.345500	1.733205
2.346000	1.733205
2.346500	1.734161
2.347000	1.733843
2.347500	1.733524
2.348000	1.731931
2.348500	1.730339
2.349000	1.731613
2.349500	1.731613
2.350000	1.732887
2.350500	1.733524
2.351000	1.734480
2.351500	1.734480
2.352000	1.733205
2.352500	1.732887
2.353000	1.733205
2.353500	1.734161
2.354000	1.735435
2.354500	1.735754
2.355000	1.735117
2.355500	1.733524
2.356000	1.733205
2.356500	1.732568
2.357000	1.732568
2.357500	1.731931
2.358000	1.734161
2.358500	1.733843
2.359000	1.733205
2.359500	1.731931
2.360000	1.730976
2.360500	1.730976
2.361000	1.731931
2.361500	1.733205
2.362000	1.733205
2.362500	1.733843
2.363000	1.733205
2.363500	1.732887
2.364000	1.732250
2.364500	1.732250
2.365000	1.733205
2.365500	1.734798
2.366000	1.735435
2.366500	1.735117
2.367000	1.734798
2.367500	1.733205
2.368000	1.732250
2.368500	1.731931
2.369000	1.732250
2.369500	1.731931
2.370000	1.733524
2.370500	1.732887
2.371000	1.733205
2.371500	1.732250
2.372000	1.730976
2.372500	1.731613
2.373000	1.732568
2.373500	1.733843
2.374000	1.734161
2.374500	1.735117
2.375000	1.733205
2.375500	1.732887
2.376000	1.732250
2.376500	1.733205
2.377000	1.734161
2.377500	1.735117
2.378000	1.735117
2.378500	1.734798
2.379000	1.732887
2.379500	1.732568
2.380000	1.732568
2.380500	1.733205
2.381000	1.732887
2.381500	1.734161
2.382000	1.733843
2.382500	1.734161
2.383000	1.730976
2.383500	1.730657
2.384000	1.730976
2.384500	1.732568
2.385000	1.734161
2.385500	1.734480
2.386000	1.734480
2.386500	1.734161
2.387000	1.733843
2.387500	1.732887
2.388000	1.733205
2.388500	1.734161
2.389000	1.735435
2.389500	1.735435
2.390000	1.735117
2.390500	1.733843
2.391000	1.733524
2.391500	1.733205
2.392000	1.734161
2.392500	1.734161
2.393000	1.733205
2.393500	1.734161
2.394000	1.733205
2.394500	1.732250
2.395000	1.731931
2.395500	1.730976
2.396000	1.732250
2.396500	1.733524
2.397000	1.734480
2.397500	1.734798
2.398000	1.735117
2.398500	1.733205
2.399000	1.733524
2.399500	1.733205
2.400000	1.734161
2.400500	1.735435
2.401000	1.736709
2.401500	1.735435
2.402000	1.733843
2.402500	1.733205
2.403000	1.732250
2.403500	1.733524
2.404000	1.733524
2.404500	1.733524
2.405000	1.734161
2.405500	1.734798
2.406000	1.733843
2.406500	1.731613
2.407000	1.730976
2.407500	1.731931
2.408000	1.733205
2.408500	1.733524
2.409000	1.734798
2.409500	1.734798
2.410000	1.733843
2.410500	1.733843
2.411000	1.733524
2.411500	1.734161
2.412000	1.734798
2.412500	1.736391
2.413000	1.735754
2.413500	1.734161
2.414000	1.733205
2.414500	1.732887
2.415000	1.732250
2.415500	1.732250
2.416000	1.733524
2.416500	1.733843
2.417000	1.733205
2.417500	1.732568
2.418000	1.731613
2.418500	1.730976
2.419000	1.731931
2.419500	1.732250
2.420000	1.733524
2.420500	1.733524
2.421000	1.734480
2.421500	1.733843
2.422000	1.732568
2.422500	1.731931
2.423000	1.733524
2.423500	1.734798
2.424000	1.736072
2.424500	1.735754
2.425000	1.734161
2.425500	1.733843
2.426000	1.732887
2.426500	1.731931
2.427000	1.732250
2.427500	1.731931
2.428000	1.733524
2.428500	1.733524
2.429000	1.732887
2.429500	1.731613
2.430000	1.730657
2.430500	1.731294
2.431000	1.732250
2.431500	1.733205
2.432000	1.732887
2.432500	1.733205
2.433000	1.733843
2.433500	1.733843
2.434000	1.733205
2.434500	1.733524
2.435000	1.733524
2.435500	1.735117
2.436000	1.735754
2.436500	1.735117
2.437000	1.733843
2.437500	1.733524
2.438000	1.732887
2.438500	1.731613
2.439000	1.732250
2.439500	1.733205
2.440000	1.733524
2.440500	1.733524
2.441000	1.731613
2.441500	1.730339
2.442000	1.730657
2.442500	1.730657
2.443000	1.732568
2.443500	1.732887
2.444000	1.733205
2.444500	1.734480
2.445000	1.733843
2.445500	1.733205
2.446000	1.732250
2.446500	1.732887
2.447000	1.734798
2.447500	1.735754
2.448000	1.735754
2.448500	1.733843
2.449000	1.733524
2.449500	1.732568
2.450000	1.732887
2.450500	1.732887
2.451000	1.732887
2.451500	1.733205
2.452000	1.733843
2.452500	1.732887
2.453000	1.731613
2.453500	1.730020
2.454000	1.731613
2.454500	1.732568
2.455000	1.733205
2.455500	1.733205
2.456000	1.733843
2.456500	1.734480
2.457000	1.733524
2.457500	1.733205
2.458000	1.732250
2.458500	1.734161
2.459000	1.735435
2.459500	1.735435
2.460000	1.734480
2.460500	1.733205
2.461000	1.732568
2.461500	1.731931
2.462000	1.732250
2.462500	1.732568
2.463000	1.734161
2.463500	1.734480
2.464000	1.733843
2.464500	1.731613
2.465000	1.730339
2.465500	1.731613
2.466000	1.733205
2.466500	1.734161
2.467000	1.734161
2.467500	1.733524
2.468000	1.734480
2.468500	1.734161
2.469000	1.733205
2.469500	1.733524
2.470000	1.733843
2.470500	1.735117
2.471000	1.735754
2.471500	1.735435
2.472000	1.734480
2.472500	1.734161
2.473000	1.732887
2.473500	1.732568
2.474000	1.733843
2.474500	1.733843
2.475000	1.733843
2.475500	1.734161
2.476000	1.732568
2.476500	1.731294
2.477000	1.730657
2.477500	1.731294
2.478000	1.732568
2.478500	1.733524
2.479000	1.733843
2.479500	1.734161
2.480000	1.733843
2.480500	1.733524
2.481000	1.732250
2.481500	1.732568
2.482000	1.733843
2.482500	1.735435
2.483000	1.735754
2.483500	1.735435
2.484000	1.734161
2.484500	1.732887
2.485000	1.731931
2.485500	1.731931
2.486000	1.733205
2.486500	1.733205
2.487000	1.733205
2.487500	1.734161
2.488000	1.731931
2.488500	1.730976
2.489000	1.730976
2.489500	1.731613
2.490000	1.733524
2.490500	1.733524
2.491000	1.734480
2.491500	1.734480
2.492000	1.733205
2.492500	1.732568
2.493000	1.732887
2.493500	1.734161
2.494000	1.734480
2.494500	1.735435
2.495000	1.735117
2.495500	1.733524
2.496000	1.732887
2.496500	1.731931
2.497000	1.730976
2.497500	1.732568
2.498000	1.733205
2.498500	1.734161
2.499000	1.733205
2.499500	1.732568
2.500000	1.731294
2.500500	1.730020
2.501000	1.731613
2.501500	1.731931
2.502000	1.733524
2.502500	1.733205
2.503000	1.733843
2.503500	1.733205
2.504000	1.734161
2.504500	1.732568
2.505000	1.733205
2.505500	1.734480
2.506000	1.735754
2.506500	1.736391
2.507000	1.735435
2.507500	1.733524
2.508000	1.733524
2.508500	1.732568
2.509000	1.731931
2.509500	1.732887
2.510000	1.734480
2.510500	1.734161
2.511000	1.733524
2.511500	1.731931
2.512000	1.730976
2.512500	1.730976
2.513000	1.732250
2.513500	1.733524
2.514000	1.734161
2.514500	1.733843
2.515000	1.733843
2.515500	1.733205
2.516000	1.732887
2.516500	1.733524
2.517000	1.733524
2.517500	1.735117
2.518000	1.736391
2.518500	1.735435
2.519000	1.733843
2.519500	1.733524
2.520000	1.733205
2.520500	1.732568
2.521000	1.732568
2.521500	1.732250
2.522000	1.732887
2.522500	1.732568
2.523000	1.732250
2.523500	1.731294
2.524000	1.730339
2.524500	1.731613
2.525000	1.732887
2.525500	1.733205
2.526000	1.734480
2.526500	1.734480
2.527000	1.733843
2.527500	1.732887
2.528000	1.732568
2.528500	1.732250
2.529000	1.733843
2.529500	1.735117
2.530000	1.735435
2.530500	1.733843
2.531000	1.732568
2.531500	1.731931
2.532000	1.731931
2.532500	1.731613
2.533000	1.731931
2.533500	1.733205
2.534000	1.733205
2.534500	1.732568
2.535000	1.731294
2.535500	1.730020
2.536000	1.730976
2.536500	1.732568
2.537000	1.733843
2.537500	1.733843
2.538000	1.734161
2.538500	1.733843
2.539000	1.733205
2.539500	1.732887
2.540000	1.732887
2.540500	1.734480
2.541000	1.735754
2.541500	1.735435
2.542000	1.734798
2.542500	1.733205
2.543000	1.732568
2.543500	1.732250
2.544000	1.731931
2.544500	1.732568
2.545000	1.733524
2.545500	1.733524
2.546000	1.733524
2.546500	1.731931
2.547000	1.730976
2.547500	1.730976
2.548000	1.731931
2.548500	1.732568
2.549000	1.733524
2.549500	1.733843
2.550000	1.733205
2.550500	1.733524
2.551000	1.733524
2.551500	1.732887
2.552000	1.733205
2.552500	1.735435
2.553000	1.735435
2.553500	1.734161
2.554000	1.732887
2.554500	1.732568
2.555000	1.731613
2.555500	1.731931
2.556000	1.731931
2.556500	1.732887
2.557000	1.732568
2.557500	1.733524
2.558000	1.732250
2.558500	1.730339
2.559000	1.730339
2.559500	1.731931
2.560000	1.732568
2.560500	1.733524
2.561000	1.733205
2.561500	1.733205
2.562000	1.733524
2.562500	1.732568
2.563000	1.732250
2.563500	1.732568
2.564000	1.732887
2.564500	1.735754
2.565000	1.735435
2.565500	1.734480
2.566000	1.733205
2.566500	1.732250
2.567000	1.731613
2.567500	1.731931
2.568000	1.732250
2.568500	1.732250
2.569000	1.733205
2.569500	1.732887
2.570000	1.730657
2.570500	1.730339
2.571000	1.731294
2.571500	1.732887
2.572000	1.734161
2.572500	1.733205
2.573000	1.733843
2.573500	1.733205
2.574000	1.732887
2.574500	1.731931
2.575000	1.732887
2.575500	1.734480
2.576000	1.735435
2.576500	1.735754
2.577000	1.733843
2.577500	1.733205
2.578000	1.732568
2.578500	1.732250
2.579000	1.732250
2.579500	1.732250
2.580000	1.732887
2.580500	1.733843
2.581000	1.732568
2.581500	1.731294
2.582000	1.730020
2.582500	1.730020
2.583000	1.731294
2.583500	1.732250
2.584000	1.733524
2.584500	1.734161
2.585000	1.733524
2.585500	1.734161
2.586000	1.732887
2.586500	1.732887
2.587000	1.733205
2.587500	1.735117
2.588000	1.736072
2.588500	1.734798
2.589000	1.733843
2.589500	1.732887
2.590000	1.732250
2.590500	1.731613
2.591000	1.731931
2.591500	1.733205
2.592000	1.733205
2.592500	1.733524
2.593000	1.731613
2.593500	1.730020
2.594000	1.730339
2.594500	1.731931
2.595000	1.732568
2.595500	1.732887
2.596000	1.733205
2.596500	1.733843
2.597000	1.733205
2.597500	1.732568
2.598000	1.732887
2.598500	1.732568
2.599000	1.733843
2.599500	1.734480
2.600000	1.734798
2.600500	1.733843
2.601000	1.732568
2.601500	1.732250
2.602000	1.732568
2.602500	1.730976
2.603000	1.731613
2.603500	1.732568
2.604000	1.732250
2.604500	1.732250
2.605000	1.731613
2.605500	1.729702
2.606000	1.730657
2.606500	1.731931
2.607000	1.733205
2.607500	1.732568
2.608000	1.733205
2.608500	1.733205
2.609000	1.732568
2.609500	1.732250
2.610000	1.731931
2.610500	1.732568
2.611000	1.734480
2.611500	1.735117
2.612000	1.733205
2.612500	1.732887
2.613000	1.731931
2.613500	1.731931
2.614000	1.731613
2.614500	1.732250
2.615000	1.732250
2.615500	1.733524
2.616000	1.733205
2.616500	1.731294
2.617000	1.730020
2.617500	1.730020
2.618000	1.731294
2.618500	1.732250
2.619000	1.733205
2.619500	1.733843
2.620000	1.733524
2.620500	1.733843
2.621000	1.732887
2.621500	1.732250
2.622000	1.733205
2.622500	1.733524
2.623000	1.734798
2.623500	1.735754
2.624000	1.733843
2.624500	1.733205
2.625000	1.732887
2.625500	1.732568
2.626000	1.731931
2.626500	1.732887
2.627000	1.733843
2.627500	1.732887
2.628000	1.732568
2.628500	1.730657
2.629000	1.730020
2.629500	1.730976
2.630000	1.731931
2.630500	1.732568
2.631000	1.733843
2.631500	1.733524
2.632000	1.734161
2.632500	1.733205
2.633000	1.731931
2.633500	1.733205
2.634000	1.732887
2.634500	1.735117
2.635000	1.735435
2.635500	1.735435
2.636000	1.734161
2.636500	1.733205
2.637000	1.731931
2.637500	1.731931
2.638000	1.732568
2.638500	1.732887
2.639000	1.734480
2.639500	1.733524
2.640000	1.731931
2.640500	1.730976
2.641000	1.730339
2.641500	1.730976
2.642000	1.733205
2.642500	1.732568
2.643000	1.733524
2.643500	1.733843
2.644000	1.733843
2.644500	1.732568
2.645000	1.733205
2.645500	1.733524
2.646000	1.735117
2.646500	1.735435
2.647000	1.734480
2.647500	1.733524
2.648000	1.731931
2.648500	1.732250
2.649000	1.731931
2.649500	1.731931
2.650000	1.732568
2.650500	1.733524
2.651000	1.733205
2.651500	1.731931
2.652000	1.729702
2.652500	1.730020
2.653000	1.731613
2.653500	1.732568
2.654000	1.732568
2.654500	1.733843
2.655000	1.733524
2.655500	1.733205
2.656000	1.732250
2.656500	1.731931
2.657000	1.732887
2.657500	1.734480
2.658000	1.734798
2.658500	1.734798
2.659000	1.734161
2.659500	1.732887
2.660000	1.731931
2.660500	1.731931
2.661000	1.732250
2.661500	1.732250
2.662000	1.733843
2.662500	1.732887
2.663000	1.732250
2.663500	1.730976
2.664000	1.729702
2.664500	1.730339
2.665000	1.732568
2.665500	1.733843
2.666000	1.732887
2.666500	1.733843
2.667000	1.733205
2.667500	1.732568
2.668000	1.731931
2.668500	1.732887
2.669000	1.734161
2.669500	1.735117
2.670000	1.735117
2.670500	1.733524
2.671000	1.732250
2.671500	1.731613
2.672000	1.730657
2.672500	1.731931
2.673000	1.731931
2.673500	1.732887
2.674000	1.733205
2.674500	1.731931
2.675000	1.730976
2.675500	1.730339
2.676000	1.730339
2.676500	1.732250
2.677000	1.732568
2.677500	1.733524
2.678000	1.732568
2.678500	1.733205
2.679000	1.732887
2.679500	1.731613
2.680000	1.731931
2.680500	1.733524
2.681000	1.734480
2.681500	1.734798
2.682000	1.734480
2.682500	1.732250
2.683000	1.731931
2.683500	1.732250
2.684000	1.731931
2.684500	1.731931
2.685000	1.732568
2.685500	1.732887
2.686000	1.732250
2.686500	1.730976
2.687000	1.730339
2.687500	1.730020
2.688000	1.731294
2.688500	1.732250
2.689000	1.731931
2.689500	1.733205
2.690000	1.732250
2.690500	1.732250
2.691000	1.732568
2.691500	1.731931
2.692000	1.733205
2.692500	1.733843
2.693000	1.735435
2.693500	1.733524
2.694000	1.732250
2.694500	1.731931
2.695000	1.732250
2.695500	1.731613
2.696000	1.731931
2.696500	1.732568
2.697000	1.733205
2.697500	1.732250
2.698000	1.731613
2.698500	1.730976
2.699000	1.730339
2.699500	1.731294
2.700000	1.732568
2.700500	1.732887
2.701000	1.733205
2.701500	1.734161
2.702000	1.731931
2.702500	1.731613
2.703000	1.732568
2.703500	1.732568
2.704000	1.733205
2.704500	1.735117
2.705000	1.734798
2.705500	1.733205
2.706000	1.732568
2.706500	1.731613
2.707000	1.731613
2.707500	1.731931
2.708000	1.732250
2.708500	1.732250
2.709000	1.731613
2.709500	1.731294
2.710000	1.730020
2.710500	1.729702
2.711000	1.730339
2.711500	1.731931
2.712000	1.731294
2.712500	1.731931
2.713000	1.733524
2.713500	1.732568
2.714000	1.732887
2.714500	1.730976
2.715000	1.733205
2.715500	1.733843
2.716000	1.734480
2.716500	1.734161
2.717000	1.733843
2.717500	1.732250
2.718000	1.732887
2.718500	1.730976
2.719000	1.731613
2.719500	1.731613
2.720000	1.731613
2.720500	1.733205
2.721000	1.731613
2.721500	1.730657
2.722000	1.728746
2.722500	1.730657
2.723000	1.730976
2.723500	1.732250
2.724000	1.732568
2.724500	1.733205
2.725000	1.733205
2.725500	1.732568
2.726000	1.731613
2.726500	1.732250
2.727000	1.733205
2.727500	1.735117
2.728000	1.734480
2.728500	1.734161
2.729000	1.733524
2.729500	1.732568
2.730000	1.731931
2.730500	1.730976
2.731000	1.731613
2.731500	1.732568
2.732000	1.733205
2.732500	1.732887
2.733000	1.730976
2.733500	1.730657
2.734000	1.730020
2.734500	1.730339
2.735000	1.732250
2.735500	1.732568
2.736000	1.732887
2.736500	1.733524
2.737000	1.732568
2.737500	1.732250
2.738000	1.731613
2.738500	1.732568
2.739000	1.733524
2.739500	1.735435
2.740000	1.735117
2.740500	1.733843
2.741000	1.733205
2.741500	1.732250
2.742000	1.732568
2.742500	1.731931
2.743000	1.732250
2.743500	1.732887
2.744000	1.733205
2.744500	1.732250
2.745000	1.730657
2.745500	1.730020
2.746000	1.730339
2.746500	1.731931
2.747000	1.732887
2.747500	1.733843
2.748000	1.733524
2.748500	1.733843
2.749000	1.733524
2.749500	1.732887
2.750000	1.732887
2.750500	1.733524
2.751000	1.735435
2.751500	1.735754
2.752000	1.733843
2.752500	1.733843
2.753000	1.733205
2.753500	1.731294
2.754000	1.732250
2.754500	1.732568
2.755000	1.733524
2.755500	1.733843
2.756000	1.732568
2.756500	1.730976
2.757000	1.729702
2.757500	1.730976
2.758000	1.731931
2.758500	1.732887
2.759000	1.733205
2.759500	1.734480
2.760000	1.734161
2.760500	1.733524
2.761000	1.732250
2.761500	1.732887
2.762000	1.733205
2.762500	1.735117
2.763000	1.735435
2.763500	1.735117
2.764000	1.733524
2.764500	1.732887
2.765000	1.732250
2.765500	1.732568
2.766000	1.732568
2.766500	1.732250
2.767000	1.733205
2.767500	1.732887
2.768000	1.731613
2.768500	1.730657
2.769000	1.730339
2.769500	1.731613
2.770000	1.733205
2.770500	1.733524
2.771000	1.733843
2.771500	1.733524
2.772000	1.733524
2.772500	1.732250
2.773000	1.732568
2.773500	1.732568
2.774000	1.734798
2.774500	1.735754
2.775000	1.735117
2.775500	1.732887
2.776000	1.732568
2.776500	1.733205
2.777000	1.732887
2.777500	1.731931
2.778000	1.732887
2.778500	1.733205
2.779000	1.733524
2.779500	1.731931
2.780000	1.731294
2.780500	1.730657
2.781000	1.731613
2.781500	1.732250
2.782000	1.733205
2.782500	1.733205
2.783000	1.733524
2.783500	1.732568
2.784000	1.732887
2.784500	1.732568
2.785000	1.733205
2.785500	1.734480
2.786000	1.735117
2.786500	1.734480
2.787000	1.733524
2.787500	1.733524
2.788000	1.731294
2.788500	1.731294
2.789000	1.731931
2.789500	1.732250
2.790000	1.732250
2.790500	1.732887
2.791000	1.732568
2.791500	1.730976
2.792000	1.729383
2.792500	1.730339
2.793000	1.731931
2.793500	1.733843
2.794000	1.732568
2.794500	1.733843
2.795000	1.733524
2.795500	1.733205
2.796000	1.732250
2.796500	1.731931
2.797000	1.733205
2.797500	1.735117
2.798000	1.735117
2.798500	1.734161
2.799000	1.733524
2.799500	1.732568
2.800000	1.731931
2.800500	1.730976
2.801000	1.731931
2.801500	1.732250
2.802000	1.733205
2.802500	1.733205
2.803000	1.731294
2.803500	1.730657
2.804000	1.730657
2.804500	1.731613
2.805000	1.732568
2.805500	1.733524
2.806000	1.733843
2.806500	1.734161
2.807000	1.733524
2.807500	1.732887
2.808000	1.732250
2.808500	1.733205
2.809000	1.734798
2.809500	1.736072
2.810000	1.735117
2.810500	1.734798
2.811000	1.732568
2.811500	1.733205
2.812000	1.732250
2.812500	1.732887
2.813000	1.733205
2.813500	1.733205
2.814000	1.733843
2.814500	1.731613
2.815000	1.729702
2.815500	1.730339
2.816000	1.730976
2.816500	1.731294
2.817000	1.732887
2.817500	1.734480
2.818000	1.733524
2.818500	1.732887
2.819000	1.733205
2.819500	1.732887
2.820000	1.732887
2.820500	1.734161
2.821000	1.735435
2.821500	1.735117
2.822000	1.734161
2.822500	1.733524
2.823000	1.732250
2.823500	1.732250
2.824000	1.731931
2.824500	1.732250
2.825000	1.733524
2.825500	1.733843
2.826000	1.732568
2.826500	1.730657
2.827000	1.730657
2.827500	1.731294
2.828000	1.732568
2.828500	1.733205
2.829000	1.733524
2.829500	1.733205
2.830000	1.732568
2.830500	1.732887
2.831000	1.732568
2.831500	1.732568
2.832000	1.733843
2.832500	1.735754
2.833000	1.735117
2.833500	1.733843
2.834000	1.732887
2.834500	1.733205
2.835000	1.731931
2.835500	1.731931
2.836000	1.732250
2.836500	1.732887
2.837000	1.733524
2.837500	1.732568
2.838000	1.730657
2.838500	1.730020
2.839000	1.730976
2.839500	1.731931
2.840000	1.732568
2.840500	1.733524
2.841000	1.733205
2.841500	1.732887
2.842000	1.732250
2.842500	1.732250
2.843000	1.732568
2.843500	1.733843
2.844000	1.734161
2.844500	1.734161
2.845000	1.733524
2.845500	1.732568
2.846000	1.732887
2.846500	1.731613
2.847000	1.731613
2.847500	1.731613
2.848000	1.732887
2.848500	1.732568
2.849000	1.731613
2.849500	1.730976
2.850000	1.729383
2.850500	1.730657
2.851000	1.732250
2.851500	1.731931
2.852000	1.733205
2.852500	1.732887
2.853000	1.733205
2.853500	1.731931
2.854000	1.731294
2.854500	1.732250
2.855000	1.733524
2.855500	1.735435
2.856000	1.734480
2.856500	1.733205
2.857000	1.733205
2.857500	1.732250
2.858000	1.732250
2.858500	1.731294
2.859000	1.733205
2.859500	1.733205
2.860000	1.733205
2.860500	1.731613
2.861000	1.730657
2.861500	1.729383
2.862000	1.730976
2.862500	1.731613
2.863000	1.732568
2.863500	1.733524
2.864000	1.733205
2.864500	1.733524
2.865000	1.732887
2.865500	1.732887
2.866000	1.733524
2.866500	1.733524
2.867000	1.734798
2.867500	1.735754
2.868000	1.734480
2.868500	1.733205
2.869000	1.732568
2.869500	1.732887
2.870000	1.732568
2.870500	1.732568
2.871000	1.733843
2.871500	1.732887
2.872000	1.732250
2.872500	1.731613
2.873000	1.730339
2.873500	1.730976
2.874000	1.731294
2.874500	1.732887
2.875000	1.733205
2.875500	1.733205
2.876000	1.732887
2.876500	1.732568
2.877000	1.732568
2.877500	1.732250
2.878000	1.733843
2.878500	1.735435
2.879000	1.734161
2.879500	1.733205
2.880000	1.733205
2.880500	1.732568
2.881000	1.732250
2.881500	1.732250
2.882000	1.732250
2.882500	1.733205
2.883000	1.733205
2.883500	1.732568
2.884000	1.730657
2.884500	1.730657
2.885000	1.731613
2.885500	1.731931
2.886000	1.732250
2.886500	1.733524
2.887000	1.734161
2.887500	1.734161
2.888000	1.733205
2.888500	1.732568
2.889000	1.733843
2.889500	1.735435
2.890000	1.735435
2.890500	1.735754
2.891000	1.734161
2.891500	1.732887
2.892000	1.731931
2.892500	1.731294
2.893000	1.732250
2.893500	1.733205
2.894000	1.733205
2.894500	1.733843
2.895000	1.732568
2.895500	1.730976
2.896000	1.730657
2.896500	1.731294
2.897000	1.733205
2.897500	1.732568
2.898000	1.733843
2.898500	1.733205
2.899000	1.732250
2.899500	1.733843
2.900000	1.732568
2.900500	1.732250
2.901000	1.733205
2.901500	1.734798
2.902000	1.734798
2.902500	1.734161
2.903000	1.732887
2.903500	1.732568
2.904000	1.731294
2.904500	1.731613
2.905000	1.732250
2.905500	1.733205
2.906000	1.733524
2.906500	1.732887
2.907000	1.730339
2.907500	1.729702
2.908000	1.731294
2.908500	1.732250
2.909000	1.732887
2.909500	1.733524
2.910000	1.733524
2.910500	1.733205
2.911000	1.733205
2.911500	1.732568
2.912000	1.732250
2.912500	1.733524
2.913000	1.735435
2.913500	1.735117
2.914000	1.733205
2.914500	1.732568
2.915000	1.732887
2.915500	1.732568
2.916000	1.731931
2.916500	1.732250
2.917000	1.733524
2.917500	1.732887
2.918000	1.732568
2.918500	1.730657
2.919000	1.730657
2.919500	1.730020
2.920000	1.731294
2.920500	1.733205
2.921000	1.733205
2.921500	1.732887
2.922000	1.733843
2.922500	1.733205
2.923000	1.731613
2.923500	1.732568
2.924000	1.733205
2.924500	1.735435
2.925000	1.735754
2.925500	1.735435
2.926000	1.734161
2.926500	1.732887
2.927000	1.732887
2.927500	1.731931
2.928000	1.731294
2.928500	1.732568
2.929000	1.734161
2.929500	1.733205
2.930000	1.731613
2.930500	1.730976
2.931000	1.730339
2.931500	1.730657
2.932000	1.731931
2.932500	1.732568
2.933000	1.733205
2.933500	1.734161
2.934000	1.733524
2.934500	1.732250
2.935000	1.732250
2.935500	1.732887
2.936000	1.734161
2.936500	1.735117
2.937000	1.735117
2.937500	1.733843
2.938000	1.732887
2.938500	1.731931
2.939000	1.731931
2.939500	1.731294
2.940000	1.732250
2.940500	1.732568
2.941000	1.732887
2.941500	1.732250
2.942000	1.731613
2.942500	1.730020
2.943000	1.730020
2.943500	1.730976
2.944000	1.732568
2.944500	1.732887
2.945000	1.733205
2.945500	1.734161
2.946000	1.733524
2.946500	1.732250
2.947000	1.731931
2.947500	1.733524
2.948000	1.734480
2.948500	1.735117
2.949000	1.734161
2.949500	1.733205
2.950000	1.731294
2.950500	1.731931
2.951000	1.730657
2.951500	1.731294
2.952000	1.731613
2.952500	1.731931
2.953000	1.732568
2.953500	1.730976
2.954000	1.729702
2.954500	1.729383
2.955000	1.730339
2.955500	1.730976
2.956000	1.731931
2.956500	1.732568
2.957000	1.731931
2.957500	1.732887
2.958000	1.732250
2.958500	1.731613
2.959000	1.731294
2.959500	1.733843
2.960000	1.734480
2.960500	1.733524
2.961000	1.733524
2.961500	1.732250
2.962000	1.732250
2.962500	1.730339
2.963000	1.731294
2.963500	1.731931
2.964000	1.731931
2.964500	1.732568
2.965000	1.732568
2.965500	1.730657
2.966000	1.729383
2.966500	1.729383
2.967000	1.730976
2.967500	1.732568
2.968000	1.731931
2.968500	1.733524
2.969000	1.732250
2.969500	1.732568
2.970000	1.731931
2.970500	1.731294
2.971000	1.732887
2.971500	1.734480
2.972000	1.734161
2.972500	1.733843
2.973000	1.733205
2.973500	1.731294
2.974000	1.731613
2.974500	1.730976
2.975000	1.732568
2.975500	1.732887
2.976000	1.732887
2.976500	1.732568
2.977000	1.732250
2.977500	1.730339
2.978000	1.730020
2.978500	1.730339
2.979000	1.732250
2.979500	1.732568
2.980000	1.732887
2.980500	1.733205
2.981000	1.733205
2.981500	1.733205
2.982000	1.731613
2.982500	1.732250
2.983000	1.732887
2.983500	1.735435
2.984000	1.735435
2.984500	1.734480
2.985000	1.733205
2.985500	1.732568
2.986000	1.732250
2.986500	1.731294
2.987000	1.731613
2.987500	1.732568
2.988000	1.733524
2.988500	1.733524
2.989000	1.731294
2.989500	1.730976
2.990000	1.730339
2.990500	1.731613
2.991000	1.732250
2.991500	1.733524
2.992000	1.733524
2.992500	1.733843
2.993000	1.732887
2.993500	1.732887
2.994000	1.733205
2.994500	1.733524
2.995000	1.735117
2.995500	1.735435
2.996000	1.735117
2.996500	1.734161
2.997000	1.733205
2.997500	1.732568
2.998000	1.731931
2.998500	1.732250
2.999000	1.732887
2.999500	1.733524
3.000000	1.731931
3.000500	1.732568
3.001000	1.730020
3.001500	1.730339
3.002000	1.730976
3.002500	1.732568
3.003000	1.732887
3.003500	1.733205
3.004000	1.733205
3.004500	1.734161
3.005000	1.733524
3.005500	1.732250
3.006000	1.732887
3.006500	1.733205
3.007000	1.735435
3.007500	1.735117
3.008000	1.734480
3.008500	1.732887
3.009000	1.732887
3.009500	1.731931
3.010000	1.731613
3.010500	1.731613
3.011000	1.733205
3.011500	1.734161
3.012000	1.732887
3.012500	1.731613
3.013000	1.730339
3.013500	1.730976
3.014000	1.732568
3.014500	1.733205
3.015000	1.734480
3.015500	1.734161
3.016000	1.733843
3.016500	1.733843
3.017000	1.733524
3.017500	1.733205
3.018000	1.733843
3.018500	1.735754
3.019000	1.736072
3.019500	1.734798
3.020000	1.733524
3.020500	1.732568
3.021000	1.732250
3.021500	1.732250
3.022000	1.732250
3.022500	1.732887
3.023000	1.734161
3.023500	1.733205
3.024000	1.732250
3.024500	1.731613
3.025000	1.731613
3.025500	1.732568
3.026000	1.733205
3.026500	1.734798
3.027000	1.733205
3.027500	1.734161
3.028000	1.733843
3.028500	1.732887
3.029000	1.732887
3.029500	1.733843
3.030000	1.735435
3.030500	1.735117
3.031000	1.735754
3.031500	1.733524
3.032000	1.732568
3.032500	1.732250
3.033000	1.732250
3.033500	1.732887
3.034000	1.733843
3.034500	1.734480
3.035000	1.733524
3.035500	1.732887
3.036000	1.730976
3.036500	1.730657
3.037000	1.731294
3.037500	1.732887
3.038000	1.733843
3.038500	1.733205
3.039000	1.733205
3.039500	1.733205
3.040000	1.732568
3.040500	1.731613
3.041000	1.732887
3.041500	1.733205
3.042000	1.734480
3.042500	1.735754
3.043000	1.734480
3.043500	1.733524
3.044000	1.732568
3.044500	1.731931
3.045000	1.732250
3.045500	1.732568
3.046000	1.732250
3.046500	1.732887
3.047000	1.732887
3.047500	1.730976
3.048000	1.729702
3.048500	1.729702
3.049000	1.731613
3.049500	1.731931
3.050000	1.732568
3.050500	1.733205
3.051000	1.732568
3.051500	1.731931
3.052000	1.731294
3.052500	1.731294
3.053000	1.731931
3.053500	1.733843
3.054000	1.735117
3.054500	1.734480
3.055000	1.732887
3.055500	1.732250
3.056000	1.731931
3.056500	1.731613
3.057000	1.730657
3.057500	1.732250
3.058000	1.732568
3.058500	1.731294
3.059000	1.730339
3.059500	1.729383
3.060000	1.728746
3.060500	1.730339
3.061000	1.730657
3.061500	1.731931
3.062000	1.731294
3.062500	1.732568
3.063000	1.731294
3.063500	1.730976
3.064000	1.730976
3.064500	1.731613
3.065000	1.732568
3.065500	1.734161
3.066000	1.733843
3.066500	1.732568
3.067000	1.731613
3.067500	1.730657
3.068000	1.730339
3.068500	1.731294
3.069000	1.730339
3.069500	1.731613
3.070000	1.731931
3.070500	1.731294
3.071000	1.729383
3.071500	1.728427
3.072000	1.729064
3.072500	1.730020
3.073000	1.731613
3.073500	1.731931
3.074000	1.731931
3.074500	1.731294
3.075000	1.731931
3.075500	1.730976
3.076000	1.730976
3.076500	1.733205
3.077000	1.734161
3.077500	1.733843
3.078000	1.732887
3.078500	1.730657
3.079000	1.730976
3.079500	1.730976
3.080000	1.730339
3.080500	1.730657
3.081000	1.731294
3.081500	1.731931
3.082000	1.731294
3.082500	1.729702
3.083000	1.728746
3.083500	1.729064
3.084000	1.730339
3.084500	1.732568
3.085000	1.732250
3.085500	1.731613
3.086000	1.732568
3.086500	1.731294
3.087000	1.730657
3.087500	1.731613
3.088000	1.732568
3.088500	1.733843
3.089000	1.732887
3.089500	1.732887
3.090000	1.731613
3.090500	1.730339
3.091000	1.730339
3.091500	1.730976
3.092000	1.731613
3.092500	1.732250
3.093000	1.732250
3.093500	1.730657
3.094000	1.729064
3.094500	1.728427
3.095000	1.730020
3.095500	1.731294
3.096000	1.731613
3.096500	1.732568
3.097000	1.732568
3.097500	1.731294
3.098000	1.731294
3.098500	1.731294
3.099000	1.731931
3.099500	1.733205
3.100000	1.733524
3.100500	1.733843
3.101000	1.733205
3.101500	1.732568
3.102000	1.731294
3.102500	1.730657
3.103000	1.731931
3.103500	1.732250
3.104000	1.731294
3.104500	1.732887
3.105000	1.731613
3.105500	1.730339
3.106000	1.729383
3.106500	1.730020
3.107000	1.730339
3.107500	1.731931
3.108000	1.732568
3.108500	1.731931
3.109000	1.732250
3.109500	1.732250
3.110000	1.731613
3.110500	1.731613
3.111000	1.731931
3.111500	1.734798
3.112000	1.734161
3.112500	1.733205
3.113000	1.732568
3.113500	1.731931
3.114000	1.731931
3.114500	1.730657
3.115000	1.731613
3.115500	1.732887
3.116000	1.732250
3.116500	1.731931
3.117000	1.730020
3.117500	1.729383
3.118000	1.730020
3.118500	1.731613
3.119000	1.731931
3.119500	1.732250
3.120000	1.733205
3.120500	1.732250
3.121000	1.731931
3.121500	1.731294
3.122000	1.731931
3.122500	1.733205
3.123000	1.734161
3.123500	1.734480
3.124000	1.733843
3.124500	1.731931
3.125000	1.731931
3.125500	1.730976
3.126000	1.730976
3.126500	1.730339
3.127000	1.731931
3.127500	1.731931
3.128000	1.731294
3.128500	1.730020
3.129000	1.728427
3.129500	1.729702
3.130000	1.730339
3.130500	1.731931
3.131000	1.731613
3.131500	1.731931
3.132000	1.732568
3.132500	1.731613
3.133000	1.730976
3.133500	1.731294
3.134000	1.731613
3.134500	1.734161
3.135000	1.733205
3.135500	1.733205
3.136000	1.731931
3.136500	1.730657
3.137000	1.729383
3.137500	1.729702
3.138000	1.730657
3.138500	1.730976
3.139000	1.731931
3.139500	1.731294
3.140000	1.729383
3.140500	1.727790
3.141000	1.727790
3.141500	1.729383
3.142000	1.730020
3.142500	1.731931
3.143000	1.731931
3.143500	1.731931
3.144000	1.731294
3.144500	1.730339
3.145000	1.730339
3.145500	1.730976
3.146000	1.732568
3.146500	1.733205
3.147000	1.732568
3.147500	1.731613
3.148000	1.730976
3.148500	1.729383
3.149000	1.729383
3.149500	1.730020
3.150000	1.730339
3.150500	1.731931
3.151000	1.731613
3.151500	1.730339
3.152000	1.728427
3.152500	1.729064
3.153000	1.729702
3.153500	1.731613
3.154000	1.731931
3.154500	1.731613
3.155000	1.732568
3.155500	1.731294
3.156000	1.730339
3.156500	1.730339
3.157000	1.730976
3.157500	1.733524
3.158000	1.733843
3.158500	1.733205
3.159000	1.731931
3.159500	1.730976
3.160000	1.730657
3.160500	1.730976
3.161000	1.730020
3.161500	1.731294
3.162000	1.731613
3.162500	1.731294
3.163000	1.730976
3.163500	1.729383
3.164000	1.729064
3.164500	1.729702
3.165000	1.730657
3.165500	1.731613
3.166000	1.731613
3.166500	1.733205
3.167000	1.731294
3.167500	1.732250
3.168000	1.730657
3.168500	1.730339
3.169000	1.732250
3.169500	1.734798
3.170000	1.733843
3.170500	1.733205
3.171000	1.731613
3.171500	1.731294
3.172000	1.731294
3.172500	1.730339
3.173000	1.730657
3.173500	1.731931
3.174000	1.731931
3.174500	1.731931
3.175000	1.730339
3.175500	1.728109
3.176000	1.729383
3.176500	1.730657
3.177000	1.731613
3.177500	1.731931
3.178000	1.732250
3.178500	1.733205
3.179000	1.731931
3.179500	1.731294
3.180000	1.730976
3.180500	1.732250
3.181000	1.733524
3.181500	1.734480
3.182000	1.732887
3.182500	1.732250
3.183000	1.731613
3.183500	1.730020
3.184000	1.730020
3.184500	1.731294
3.185000	1.731613
3.185500	1.732568
3.186000	1.733205
3.186500	1.730020
3.187000	1.729702
3.187500	1.729383
3.188000	1.730657
3.188500	1.731294
3.189000	1.731294
3.189500	1.732250
3.190000	1.732887
3.190500	1.732250
3.191000	1.730976
3.191500	1.730339
3.192000	1.730657
3.192500	1.732887
3.193000	1.734161
3.193500	1.733843
3.194000	1.731613
3.194500	1.730657
3.195000	1.730976
3.195500	1.730339
3.196000	1.730020
3.196500	1.730976
3.197000	1.731613
3.197500	1.732250
3.198000	1.730657
3.198500	1.729064
3.199000	1.728427
3.199500	1.730339
3.200000	1.731294
3.200500	1.731613
3.201000	1.731613
3.201500	1.731613
3.202000	1.731613
3.202500	1.731294
3.203000	1.730657
3.203500	1.731294
3.204000	1.732887
3.204500	1.734161
3.205000	1.733205
3.205500	1.732568
3.206000	1.731613
3.206500	1.730020
3.207000	1.729383
3.207500	1.730657
3.208000	1.730657
3.208500	1.731294
3.209000	1.731613
3.209500	1.731931
3.210000	1.729702
3.210500	1.729383
3.211000	1.729702
3.211500	1.730976
3.212000	1.731613
3.212500	1.731931
3.213000	1.732250
3.213500	1.732250
3.214000	1.730976
3.214500	1.730339
3.215000	1.730657
3.215500	1.732568
3.216000	1.733843
3.216500	1.734480
3.217000	1.732568
3.217500	1.731931
3.218000	1.730976
3.218500	1.730657
3.219000	1.730657
3.219500	1.731294
3.220000	1.731931
3.220500	1.731613
3.221000	1.730657
3.221500	1.729064
3.222000	1.728427
3.222500	1.729383
3.223000	1.730020
3.223500	1.731294
3.224000	1.730976
3.224500	1.732568
3.225000	1.732250
3.225500	1.731294
3.226000	1.730657
3.226500	1.731613
3.227000	1.732887
3.227500	1.732887
3.228000	1.733843
3.228500	1.733205
3.229000	1.731931
3.229500	1.731613
3.230000	1.730976
3.230500	1.730976
3.231000	1.730976
3.231500	1.731931
3.232000	1.732250
3.232500	1.731931
3.233000	1.729702
3.233500	1.728746
3.234000	1.729064
3.234500	1.730020
3.235000	1.731613
3.235500	1.731931
3.236000	1.732568
3.236500	1.732568
3.237000	1.732250
3.237500	1.731931
3.238000	1.731294
3.238500	1.732568
3.239000	1.733843
3.239500	1.734798
3.240000	1.734161
3.240500	1.732250
3.241000	1.732250
3.241500	1.731294
3.242000	1.730657
3.242500	1.731294
3.243000	1.731931
3.243500	1.731931
3.244000	1.731613
3.244500	1.730657
3.245000	1.730020
3.245500	1.728746
3.246000	1.729702
3.246500	1.730976
3.247000	1.732250
3.247500	1.732250
3.248000	1.733205
3.248500	1.732250
3.249000	1.731613
3.249500	1.731931
3.250000	1.731931
3.250500	1.733205
3.251000	1.734798
3.251500	1.734480
3.252000	1.732568
3.252500	1.731613
3.253000	1.731294
3.253500	1.730020
3.254000	1.730657
3.254500	1.731294
3.255000	1.731931
3.255500	1.732568
3.256000	1.731294
3.256500	1.730339
3.257000	1.729383
3.257500	1.730339
3.258000	1.730657
3.258500	1.731931
3.259000	1.732250
3.259500	1.732887
3.260000	1.733205
3.260500	1.731931
3.261000	1.730976
3.261500	1.731613
3.262000	1.733524
3.262500	1.734480
3.263000	1.735117
3.263500	1.732250
3.264000	1.731613
3.264500	1.731294
3.265000	1.731294
3.265500	1.731294
3.266000	1.731931
3.266500	1.732568
3.267000	1.732887
3.267500	1.732250
3.268000	1.730657
3.268500	1.729383
3.269000	1.729702
3.269500	1.730339
3.270000	1.730976
3.270500	1.731294
3.271000	1.731931
3.271500	1.731931
3.272000	1.732250
3.272500	1.731613
3.273000	1.730339
3.273500	1.731294
3.274000	1.733843
3.274500	1.734480
3.275000	1.733843
3.275500	1.732568
3.276000	1.731613
3.276500	1.730657
3.277000	1.730976
3.277500	1.731294
3.278000	1.731294
3.278500	1.732887
3.279000	1.732887
3.279500	1.730976
3.280000	1.729702
3.280500	1.729064
3.281000	1.730020
3.281500	1.730657
3.282000	1.731613
3.282500	1.731931
3.283000	1.732568
3.283500	1.731931
3.284000	1.730976
3.284500	1.731294
3.285000	1.730657
3.285500	1.732568
3.286000	1.733843
3.286500	1.734161
3.287000	1.732568
3.287500	1.731613
3.288000	1.731294
3.288500	1.730976
3.289000	1.729702
3.289500	1.730339
3.290000	1.731613
3.290500	1.731931
3.291000	1.730976
3.291500	1.729383
3.292000	1.728109
3.292500	1.728746
3.293000	1.730339
3.293500	1.730976
3.294000	1.731613
3.294500	1.732250
3.295000	1.731931
3.295500	1.731931
3.296000	1.731613
3.296500	1.730976
3.297000	1.732250
3.297500	1.733205
3.298000	1.733843
3.298500	1.734161
3.299000	1.732250
3.299500	1.730020
3.300000	1.730020
3.300500	1.730020
3.301000	1.729702
3.301500	1.730976
3.302000	1.731931
3.302500	1.731613
3.303000	1.728427
3.303500	1.728746
3.304000	1.728427
3.304500	1.730020
3.305000	1.731294
3.305500	1.731613
3.306000	1.731931
3.306500	1.732250
3.307000	1.732250
3.307500	1.730339
3.308000	1.730976
3.308500	1.731613
3.309000	1.733524
3.309500	1.734480
3.310000	1.733524
3.310500	1.731931
3.311000	1.730657
3.311500	1.730976
3.312000	1.730020
3.312500	1.730339
3.313000	1.731294
3.313500	1.731931
3.314000	1.731931
3.314500	1.730339
3.315000	1.729702
3.315500	1.729383
3.316000	1.730339
3.316500	1.731613
3.317000	1.731931
3.317500	1.731931
3.318000	1.731931
3.318500	1.731931
3.319000	1.731294
3.319500	1.730976
3.320000	1.732250
3.320500	1.733205
3.321000	1.735117
3.321500	1.732887
3.322000	1.731613
3.322500	1.730976
3.323000	1.730976
3.323500	1.731294
3.324000	1.731294
3.324500	1.732250
3.325000	1.731613
3.325500	1.731613
3.326000	1.729383
3.326500	1.729064
3.327000	1.728746
3.327500	1.730657
3.328000	1.731613
3.328500	1.732250
3.329000	1.732887
3.329500	1.731931
3.330000	1.731294
3.330500	1.730976
3.331000	1.731294
3.331500	1.731294
3.332000	1.733205
3.332500	1.734161
3.333000	1.733205
3.333500	1.732250
3.334000	1.731294
3.334500	1.730976
3.335000	1.730020
3.335500	1.731294
3.336000	1.731613
3.336500	1.731931
3.337000	1.731294
3.337500	1.729702
3.338000	1.729064
3.338500	1.729064
3.339000	1.731294
3.339500	1.730657
3.340000	1.732250
3.340500	1.732250
3.341000	1.731613
3.341500	1.730976
3.342000	1.730020
3.342500	1.730339
3.343000	1.730657
3.343500	1.733524
3.344000	1.733524
3.344500	1.732250
3.345000	1.731613
3.345500	1.730976
3.346000	1.730339
3.346500	1.730657
3.347000	1.730339
3.347500	1.731613
3.348000	1.731294
3.348500	1.731613
3.349000	1.730976
3.349500	1.728109
3.350000	1.728427
3.350500	1.730020
3.351000	1.731294
3.351500	1.731613
3.352000	1.731613
3.352500	1.731613
3.353000	1.732568
3.353500	1.730020
3.354000	1.730657
3.354500	1.731613
3.355000	1.732887
3.355500	1.733524
3.356000	1.732568
3.356500	1.731931
3.357000	1.730020
3.357500	1.729064
3.358000	1.730657
3.358500	1.730339
3.359000	1.731613
3.359500	1.731613
3.360000	1.730657
3.360500	1.728746
3.361000	1.728109
3.361500	1.728427
3.362000	1.729702
3.362500	1.731294
3.363000	1.731931
3.363500	1.731613
3.364000	1.731931
3.364500	1.730657
3.365000	1.730339
3.365500	1.730976
3.366000	1.731613
3.366500	1.732887
3.367000	1.733843
3.367500	1.732250
3.368000	1.731931
3.368500	1.730020
3.369000	1.730976
3.369500	1.730339
3.370000	1.730657
3.370500	1.731294
3.371000	1.731613
3.371500	1.730657
3.372000	1.729702
3.372500	1.728109
3.373000	1.728109
3.373500	1.730339
3.374000	1.731294
3.374500	1.730976
3.375000	1.731931
3.375500	1.732568
3.376000	1.731294
3.376500	1.730657
3.377000	1.730657
3.377500	1.731931
3.378000	1.734161
3.378500	1.733205
3.379000	1.732250
3.379500	1.731931
3.380000	1.730976
3.380500	1.731294
3.381000	1.730339
3.381500	1.730339
3.382000	1.731294
3.382500	1.731613
3.383000	1.730339
3.383500	1.729064
3.384000	1.728746
3.384500	1.729064
3.385000	1.730657
3.385500	1.731613
3.386000	1.731931
3.386500	1.732568
3.387000	1.732568
3.387500	1.730339
3.388000	1.730657
3.388500	1.730976
3.389000	1.731931
3.389500	1.733205
3.390000	1.733843
3.390500	1.732568
3.391000	1.731294
3.391500	1.730976
3.392000	1.730657
3.392500	1.729383
3.393000	1.730657
3.393500	1.730657
3.394000	1.731294
3.394500	1.731613
3.395000	1.729702
3.395500	1.729383
3.396000	1.728746
3.396500	1.728746
3.397000	1.730020
3.397500	1.731613
3.398000	1.730976
3.398500	1.731294
3.399000	1.730976
3.399500	1.730657
3.400000	1.730657
3.400500	1.730657
3.401000	1.731613
3.401500	1.733205
3.402000	1.733205
3.402500	1.731931
3.403000	1.730657
3.403500	1.730339
3.404000	1.730020
3.404500	1.729064
3.405000	1.730339
3.405500	1.730339
3.406000	1.731931
3.406500	1.730339
3.407000	1.728427
3.407500	1.728427
3.408000	1.728427
3.408500	1.729383
3.409000	1.730657
3.409500	1.730976
3.410000	1.731613
3.410500	1.730976
3.411000	1.730976
3.411500	1.730339
3.412000	1.730976
3.412500	1.731613
3.413000	1.732568
3.413500	1.733524
3.414000	1.732568
3.414500	1.730976
3.415000	1.730339
3.415500	1.730020
3.416000	1.729383
3.416500	1.730339
3.417000	1.731294
3.417500	1.731613
3.418000	1.730657
3.418500	1.729383
3.419000	1.728427
3.419500	1.727790
3.420000	1.729064
3.420500	1.730020
3.421000	1.730976
3.421500	1.730657
3.422000	1.731294
3.422500	1.730657
3.423000	1.730339
3.423500	1.729702
3.424000	1.731294
3.424500	1.732568
3.425000	1.733524
3.425500	1.732250
3.426000	1.731294
3.426500	1.729702
3.427000	1.729383
3.427500	1.729383
3.428000	1.730020
3.428500	1.730339
3.429000	1.730657
3.429500	1.730657
3.430000	1.728746
3.430500	1.728427
3.431000	1.728427
3.431500	1.729064
3.432000	1.730657
3.432500	1.730976
3.433000	1.731931
3.433500	1.730976
3.434000	1.730976
3.434500	1.730657
3.435000	1.730020
3.435500	1.731931
3.436000	1.733205
3.436500	1.733524
3.437000	1.732568
3.437500	1.730976
3.438000	1.731294
3.438500	1.729702
3.439000	1.730339
3.439500	1.730020
3.440000	1.730657
3.440500	1.730657
3.441000	1.731294
3.441500	1.729383
3.442000	1.728427
3.442500	1.728109
3.443000	1.730020
3.443500	1.730339
3.444000	1.731613
3.444500	1.731294
3.445000	1.731931
3.445500	1.730020
3.446000	1.730976
3.446500	1.730339
3.447000	1.731613
3.447500	1.732887
3.448000	1.733843
3.448500	1.731294
3.449000	1.731613
3.449500	1.730657
3.450000	1.729383
3.450500	1.730020
3.451000	1.730339
3.451500	1.731294
3.452000	1.730976
3.452500	1.730657
3.453000	1.728746
3.453500	1.728109
3.454000	1.728427
3.454500	1.729383
3.455000	1.730657
3.455500	1.731931
3.456000	1.731931
3.456500	1.731294
3.457000	1.730657
3.457500	1.730976
3.458000	1.729702
3.458500	1.730976
3.459000	1.732568
3.459500	1.733843
3.460000	1.733205
3.460500	1.731294
3.461000	1.730657
3.461500	1.729702
3.462000	1.729064
3.462500	1.729383
3.463000	1.730976
3.463500	1.731613
3.464000	1.730976
3.464500	1.729702
3.465000	1.728746
3.465500	1.728427
3.466000	1.729702
3.466500	1.730339
3.467000	1.730339
3.467500	1.731931
3.468000	1.731294
3.468500	1.730976
3.469000	1.730020
3.469500	1.730339
3.470000	1.731294
3.470500	1.732887
3.471000	1.733843
3.471500	1.732250
3.472000	1.730339
3.472500	1.730657
3.473000	1.729702
3.473500	1.730020
3.474000	1.730339
3.474500	1.730657
3.475000	1.730020
3.475500	1.730020
3.476000	1.729383
3.476500	1.727790
3.477000	1.728109
3.477500	1.729702
3.478000	1.730339
3.478500	1.730976
3.479000	1.731294
3.479500	1.730976
3.480000	1.730657
3.480500	1.730657
3.481000	1.730657
3.481500	1.731613
3.482000	1.731931
3.482500	1.733205
3.483000	1.732250
3.483500	1.731294
3.484000	1.730339
3.484500	1.730020
3.485000	1.729383
3.485500	1.730020
3.486000	1.730976
3.486500	1.730657
3.487000	1.729702
3.487500	1.728746
3.488000	1.727153
3.488500	1.728109
3.489000	1.728746
3.489500	1.730339
3.490000	1.730976
3.490500	1.731613
3.491000	1.731294
3.491500	1.731294
3.492000	1.730020
3.492500	1.729702
3.493000	1.731294
3.493500	1.732887
3.494000	1.733524
3.494500	1.731931
3.495000	1.731294
3.495500	1.730657
3.496000	1.729702
3.496500	1.729702
3.497000	1.729702
3.497500	1.730339
3.498000	1.730976
3.498500	1.730657
3.499000	1.729702
3.499500	1.728746
3.500000	1.728109
3.500500	1.729383
3.501000	1.730657
3.501500	1.731613
3.502000	1.731613
3.502500	1.731294
3.503000	1.730657
3.503500	1.731613
3.504000	1.730976
3.504500	1.730976
3.505000	1.732568
3.505500	1.734161
3.506000	1.732887
3.506500	1.730976
3.507000	1.730657
3.507500	1.730657
3.508000	1.730339
3.508500	1.730339
3.509000	1.730657
3.509500	1.731931
3.510000	1.731294
3.510500	1.730020
3.511000	1.728427
3.511500	1.729064
3.512000	1.730020
3.512500	1.730657
3.513000	1.731613
3.513500	1.731613
3.514000	1.731294
3.514500	1.730976
3.515000	1.730976
3.515500	1.730339
3.516000	1.731294
3.516500	1.732887
3.517000	1.733205
3.517500	1.732887
3.518000	1.731294
3.518500	1.730976
3.519000	1.730339
3.519500	1.729702
3.520000	1.730976
3.520500	1.730976
3.521000	1.731931
3.521500	1.731613
3.522000	1.730020
3.522500	1.728427
3.523000	1.729064
3.523500	1.729383
3.524000	1.730657
3.524500	1.731613
3.525000	1.731613
3.525500	1.731613
3.526000	1.731613
3.526500	1.730657
3.527000	1.730657
3.527500	1.731931
3.528000	1.733205
3.528500	1.733524
3.529000	1.733205
3.529500	1.731294
3.530000	1.730976
3.530500	1.730976
3.531000	1.730657
3.531500	1.730657
3.532000	1.730657
3.532500	1.730976
3.533000	1.730339
3.533500	1.729702
3.534000	1.727790
3.534500	1.728427
3.535000	1.730020
3.535500	1.730339
3.536000	1.730976
3.536500	1.731294
3.537000	1.731613
3.537500	1.731294
3.538000	1.731294
3.538500	1.730976
3.539000	1.732250
3.539500	1.733843
3.540000	1.733843
3.540500	1.732887
3.541000	1.731613
3.541500	1.730657
3.542000	1.730339
3.542500	1.730020
3.543000	1.729702
3.543500	1.730976
3.544000	1.731613
3.544500	1.730020
3.545000	1.728746
3.545500	1.729064
3.546000	1.728746
3.546500	1.729383
3.547000	1.730976
3.547500	1.731294
3.548000	1.731931
3.548500	1.731613
3.549000	1.731294
3.549500	1.730339
3.550000	1.730976
3.550500	1.731931
3.551000	1.734161
3.551500	1.733524
3.552000	1.733205
3.552500	1.731613
3.553000	1.731931
3.553500	1.730020
3.554000	1.730339
3.554500	1.731294
3.555000	1.730657
3.555500	1.731294
3.556000	1.730976
3.556500	1.730339
3.557000	1.729383
3.557500	1.729064
3.558000	1.729064
3.558500	1.731294
3.559000	1.731613
3.559500	1.732250
3.560000	1.732250
3.560500	1.731613
3.561000	1.730339
3.561500	1.731294
3.562000	1.732887
3.562500	1.732568
3.563000	1.733205
3.563500	1.733843
3.564000	1.731613
3.564500	1.730976
3.565000	1.730020
3.565500	1.730020
3.566000	1.730657
3.566500	1.731613
3.567000	1.731931
3.567500	1.731294
3.568000	1.730020
3.568500	1.728109
3.569000	1.729064
3.569500	1.729064
3.570000	1.731294
3.570500	1.730976
3.571000	1.732568
3.571500	1.732568
3.572000	1.730976
3.572500	1.731294
3.573000	1.730976
3.573500	1.731931
3.574000	1.732568
3.574500	1.734480
3.575000	1.732887
3.575500	1.731931
3.576000	1.731294
3.576500	1.730339
3.577000	1.730657
3.577500	1.731294
3.578000	1.731294
3.578500	1.731613
3.579000	1.732250
3.579500	1.730657
3.580000	1.729064
3.580500	1.728746
3.581000	1.730976
3.581500	1.730657
3.582000	1.731294
3.582500	1.732250
3.583000	1.732568
3.583500	1.731613
3.584000	1.730657
3.584500	1.730976
3.585000	1.731931
3.585500	1.732887
3.586000	1.734161
3.586500	1.733205
3.587000	1.732568
3.587500	1.731613
3.588000	1.730976
3.588500	1.730657
3.589000	1.730657
3.589500	1.731613
3.590000	1.731613
3.590500	1.732250
3.591000	1.730657
3.591500	1.729383
3.592000	1.729064
3.592500	1.730020
3.593000	1.730339
3.593500	1.730976
3.594000	1.731931
3.594500	1.731613
3.595000	1.731613
3.595500	1.730976
3.596000	1.730976
3.596500	1.731294
3.597000	1.732568
3.597500	1.733524
3.598000	1.734798
3.598500	1.732887
3.599000	1.731931
3.599500	1.730976
3.600000	1.730339
3.600500	1.730339
3.601000	1.731294
3.601500	1.731294
3.602000	1.731931
3.602500	1.730976
3.603000	1.729702
3.603500	1.728427
3.604000	1.729064
3.604500	1.729702
3.605000	1.730657
3.605500	1.731931
3.606000	1.731931
3.606500	1.731613
3.607000	1.731294
3.607500	1.731294
3.608000	1.730976
3.608500	1.731931
3.609000	1.732887
3.609500	1.734161
3.610000	1.733205
3.610500	1.731613
3.611000	1.731294
3.611500	1.730657
3.612000	1.730339
3.612500	1.730976
3.613000	1.730976
3.613500	1.731613
3.614000	1.730657
3.614500	1.729702
3.615000	1.728427
3.615500	1.727790
3.616000	1.730657
3.616500	1.731294
3.617000	1.731931
3.617500	1.732568
3.618000	1.732568
3.618500	1.731931
3.619000	1.730339
3.619500	1.730657
3.620000	1.731294
3.620500	1.733205
3.621000	1.733843
3.621500	1.732568
3.622000	1.732250
3.622500	1.730976
3.623000	1.730339
3.623500	1.730339
3.624000	1.730657
3.624500	1.730976
3.625000	1.731931
3.625500	1.730976
3.626000	1.730339
3.626500	1.728427
3.627000	1.728746
3.627500	1.730020
3.628000	1.731613
3.628500	1.731613
3.629000	1.731931
3.629500	1.732250
3.630000	1.731294
3.630500	1.730976
3.631000	1.731294
3.631500	1.732568
3.632000	1.733205
3.632500	1.734161
3.633000	1.732568
3.633500	1.731294
3.634000	1.730657
3.634500	1.730339
3.635000	1.730020
3.635500	1.730976
3.636000	1.731613
3.636500	1.731294
3.637000	1.731613
3.637500	1.730020
3.638000	1.729064
3.638500	1.728427
3.639000	1.729702
3.639500	1.731294
3.640000	1.731931
3.640500	1.732250
3.641000	1.731931
3.641500	1.731613
3.642000	1.730657
3.642500	1.731294
3.643000	1.730657
3.643500	1.732568
3.644000	1.733524
3.644500	1.733205
3.645000	1.731613
3.645500	1.730339
3.646000	1.730339
3.646500	1.730657
3.647000	1.730020
3.647500	1.731613
3.648000	1.731613
3.648500	1.731613
3.649000	1.729702
3.649500	1.728746
3.650000	1.728746
3.650500	1.729702
3.651000	1.730657
3.651500	1.731613
3.652000	1.731294
3.652500	1.731931
3.653000	1.731931
3.653500	1.731613
3.654000	1.729383
3.654500	1.730976
3.655000	1.733205
3.655500	1.733205
3.656000	1.733843
3.656500	1.732568
3.657000	1.731931
3.657500	1.731294
3.658000	1.730020
3.658500	1.730657
3.659000	1.730976
3.659500	1.731613
3.660000	1.731613
3.660500	1.730657
3.661000	1.729383
3.661500	1.727790
3.662000	1.728746
3.662500	1.729702
3.663000	1.731931
3.663500	1.731613
3.664000	1.731613
3.664500	1.731294
3.665000	1.730976
3.665500	1.730339
3.666000	1.731613
3.666500	1.732250
3.667000	1.734161
3.667500	1.733843
3.668000	1.732250
3.668500	1.731613
3.669000	1.730339
3.669500	1.730020
3.670000	1.730339
3.670500	1.730657
3.671000	1.731294
3.671500	1.730976
3.672000	1.730657
3.672500	1.729064
3.673000	1.728746
3.673500	1.728109
3.674000	1.730339
3.674500	1.731613
3.675000	1.732250
3.675500	1.732250
3.676000	1.731931
3.676500	1.730657
3.677000	1.730657
3.677500	1.730657
3.678000	1.732568
3.678500	1.733843
3.679000	1.733205
3.679500	1.732250
3.680000	1.731294
3.680500	1.730657
3.681000	1.730657
3.681500	1.730657
3.682000	1.730976
3.682500	1.731613
3.683000	1.731613
3.683500	1.730020
3.684000	1.729383
3.684500	1.728427
3.685000	1.729383
3.685500	1.730976
3.686000	1.732250
3.686500	1.730976
3.687000	1.732568
3.687500	1.731931
3.688000	1.731294
3.688500	1.730339
3.689000	1.731613
3.689500	1.732887
3.690000	1.733524
3.690500	1.732887
3.691000	1.731931
3.691500	1.730976
3.692000	1.730657
3.692500	1.730020
3.693000	1.730339
3.693500	1.731931
3.694000	1.731294
3.694500	1.731613
3.695000	1.730339
3.695500	1.728427
3.696000	1.728746
3.696500	1.729383
3.697000	1.730976
3.697500	1.730657
3.698000	1.731613
3.698500	1.732887
3.699000	1.730976
3.699500	1.730657
3.700000	1.730976
3.700500	1.730657
3.701000	1.732568
3.701500	1.733524
3.702000	1.732568
3.702500	1.731613
3.703000	1.731294
3.703500	1.730657
3.704000	1.730339
3.704500	1.729702
3.705000	1.731294
3.705500	1.732250
3.706000	1.731613
3.706500	1.730976
3.707000	1.729383
3.707500	1.728427
3.708000	1.729064
3.708500	1.730339
3.709000	1.731613
3.709500	1.731931
3.710000	1.731931
3.710500	1.731613
3.711000	1.730657
3.711500	1.730339
3.712000	1.731931
3.712500	1.733205
3.713000	1.734480
3.713500	1.733205
3.714000	1.731931
3.714500	1.731294
3.715000	1.730976
3.715500	1.730339
3.716000	1.731294
3.716500	1.730976
3.717000	1.731294
3.717500	1.731613
3.718000	1.731294
3.718500	1.729064
3.719000	1.728427
3.719500	1.730020
3.720000	1.731294
3.720500	1.730976
3.721000	1.731931
3.721500	1.731931
3.722000	1.731613
3.722500	1.731294
3.723000	1.730976
3.723500	1.731613
3.724000	1.732568
3.724500	1.734161
3.725000	1.734798
3.725500	1.734161
3.726000	1.732568
3.726500	1.731294
3.727000	1.731294
3.727500	1.730339
3.728000	1.731613
3.728500	1.731294
3.729000	1.731931
3.729500	1.730976
3.730000	1.729702
3.730500	1.729064
3.731000	1.728746
3.731500	1.731294
3.732000	1.731613
3.732500	1.731931
3.733000	1.733205
3.733500	1.732568
3.734000	1.730657
3.734500	1.731294
3.735000	1.731931
3.735500	1.732568
3.736000	1.734480
3.736500	1.733524
3.737000	1.733843
3.737500	1.732568
3.738000	1.731613
3.738500	1.730976
3.739000	1.730657
3.739500	1.731613
3.740000	1.731294
3.740500	1.732887
3.741000	1.731613
3.741500	1.730020
3.742000	1.728427
3.742500	1.730020
3.743000	1.730657
3.743500	1.731294
3.744000	1.732568
3.744500	1.732887
3.745000	1.733205
3.745500	1.731931
3.746000	1.731613
3.746500	1.731613
3.747000	1.732887
3.747500	1.734161
3.748000	1.734798
3.748500	1.733205
3.749000	1.732250
3.749500	1.731613
3.750000	1.730657
3.750500	1.730976
3.751000	1.731294
3.751500	1.731931
3.752000	1.731931
3.752500	1.731613
3.753000	1.729383
3.753500	1.729064
3.754000	1.730339
3.754500	1.730657
3.755000	1.731613
3.755500	1.732887
3.756000	1.732887
3.756500	1.732568
3.757000	1.731294
3.757500	1.731613
3.758000	1.731613
3.758500	1.732887
3.759000	1.733843
3.759500	1.734161
3.760000	1.732568
3.760500	1.732250
3.761000	1.731613
3.761500	1.730339
3.762000	1.730657
3.762500	1.731931
3.763000	1.731294
3.763500	1.731931
3.764000	1.731613
3.764500	1.728746
3.765000	1.728746
3.765500	1.729383
3.766000	1.731294
3.766500	1.731931
3.767000	1.732568
3.767500	1.732568
3.768000	1.731931
3.768500	1.731294
3.769000	1.730020
3.769500	1.730657
3.770000	1.732887
3.770500	1.733843
3.771000	1.733205
3.771500	1.732250
3.772000	1.730976
3.772500	1.731613
3.773000	1.729702
3.773500	1.730020
3.774000	1.731294
3.774500	1.732250
3.775000	1.730976
3.775500	1.730976
3.776000	1.728427
3.776500	1.728109
3.777000	1.729702
3.777500	1.730339
3.778000	1.730657
3.778500	1.730657
3.779000	1.730976
3.779500	1.731294
3.780000	1.730657
3.780500	1.730339
3.781000	1.731294
3.781500	1.732250
3.782000	1.733524
3.782500	1.732887
3.783000	1.732568
3.783500	1.731294
3.784000	1.730657
3.784500	1.730020
3.785000	1.730657
3.785500	1.731613
3.786000	1.731294
3.786500	1.731931
3.787000	1.729383
3.787500	1.729702
3.788000	1.729064
3.788500	1.729064
3.789000	1.730339
3.789500	1.730657
3.790000	1.732250
3.790500	1.732250
3.791000	1.731294
3.791500	1.731294
3.792000	1.730339
3.792500	1.730976
3.793000	1.732887
3.793500	1.733524
3.794000	1.733524
3.794500	1.732568
3.795000	1.730976
3.795500	1.730657
3.796000	1.730020
3.796500	1.730657
3.797000	1.730657
3.797500	1.731613
3.798000	1.731931
3.798500	1.730976
3.799000	1.729383
3.799500	1.728427
3.800000	1.730020
3.800500	1.730657
3.801000	1.731613
3.801500	1.731613
3.802000	1.732250
3.802500	1.731613
3.803000	1.731294
3.803500	1.729702
3.804000	1.730657
3.804500	1.732250
3.805000	1.734161
3.805500	1.732568
3.806000	1.732250
3.806500	1.731931
3.807000	1.730976
3.807500	1.730339
3.808000	1.730657
3.808500	1.730976
3.809000	1.731931
3.809500	1.730976
3.810000	1.730657
3.810500	1.728427
3.811000	1.728109
3.811500	1.729064
3.812000	1.730657
3.812500	1.730657
3.813000	1.731613
3.813500	1.732568
3.814000	1.731931
3.814500	1.731931
3.815000	1.731294
3.815500	1.730976
3.816000	1.731931
3.816500	1.733843
3.817000	1.734480
3.817500	1.733524
3.818000	1.731613
3.818500	1.730657
3.819000	1.731294
3.819500	1.730339
3.820000	1.730657
3.820500	1.731294
3.821000	1.732250
3.821500	1.731931
3.822000	1.729702
3.822500	1.729064
3.823000	1.729064
3.823500	1.729702
3.824000	1.730976
3.824500	1.732250
3.825000	1.731931
3.825500	1.731931
3.826000	1.731294
3.826500	1.731294
3.827000	1.730657
3.827500	1.731931
3.828000	1.733205
3.828500	1.733524
3.829000	1.733524
3.829500	1.732250
3.830000	1.730657
3.830500	1.730020
3.831000	1.730339
3.831500	1.730339
3.832000	1.731294
3.832500	1.732250
3.833000	1.731613
3.833500	1.731294
3.834000	1.728746
3.834500	1.728427
3.835000	1.730339
3.835500	1.730976
3.836000	1.731931
3.836500	1.732250
3.837000	1.731931
3.837500	1.731294
3.838000	1.730657
3.838500	1.730020
3.839000	1.731931
3.839500	1.732887
3.840000	1.733843
3.840500	1.733524
3.841000	1.731613
3.841500	1.730976
3.842000	1.730976
3.842500	1.730339
3.843000	1.730339
3.843500	1.731294
3.844000	1.732568
3.844500	1.732250
3.845000	1.730976
3.845500	1.729702
3.846000	1.728746
3.846500	1.729383
3.847000	1.730657
3.847500	1.731294
3.848000	1.732250
3.848500	1.732250
3.849000	1.731613
3.849500	1.730976
3.850000	1.730976
3.850500	1.732250
3.851000	1.733205
3.851500	1.734161
3.852000	1.733843
3.852500	1.732568
3.853000	1.731931
3.853500	1.730657
3.854000	1.730339
3.854500	1.730339
3.855000	1.730657
3.855500	1.731931
3.856000	1.731294
3.856500	1.730657
3.857000	1.728427
3.857500	1.728427
3.858000	1.728746
3.858500	1.730020
3.859000	1.731613
3.859500	1.731931
3.860000	1.731931
3.860500	1.732568
3.861000	1.730657
3.861500	1.730976
3.862000	1.732250
3.862500	1.732887
3.863000	1.733843
3.863500	1.733524
3.864000	1.731931
3.864500	1.731613
3.865000	1.730657
3.865500	1.730657
3.866000	1.730657
3.866500	1.731613
3.867000	1.731931
3.867500	1.730657
3.868000	1.730339
3.868500	1.728746
3.869000	1.728109
3.869500	1.729383
3.870000	1.731613
3.870500	1.732250
3.871000	1.732887
3.871500	1.732568
3.872000	1.731613
3.872500	1.731294
3.873000	1.731294
3.873500	1.731613
3.874000	1.733205
3.874500	1.734480
3.875000	1.732887
3.875500	1.731931
3.876000	1.731613
3.876500	1.730976
3.877000	1.730657
3.877500	1.731294
3.878000	1.731294
3.878500	1.731613
3.879000	1.731294
3.879500	1.730020
3.880000	1.729064
3.880500	1.729383
3.881000	1.730657
3.881500	1.731294
3.882000	1.730976
3.882500	1.732250
3.883000	1.732250
3.883500	1.730657
3.884000	1.731294
3.884500	1.730976
3.885000	1.731931
3.885500	1.732568
3.886000	1.734480
3.886500	1.732887
3.887000	1.731931
3.887500	1.730976
3.888000	1.730657
3.888500	1.730339
3.889000	1.730976
3.889500	1.731294
3.890000	1.732568
3.890500	1.731931
3.891000	1.730020
3.891500	1.729064
3.892000	1.729383
3.892500	1.730020
3.893000	1.730976
3.893500	1.731294
3.894000	1.732568
3.894500	1.732250
3.895000	1.731294
3.895500	1.730339
3.896000	1.730339
3.896500	1.731613
3.897000	1.732887
3.897500	1.733524
3.898000	1.733205
3.898500	1.730976
3.899000	1.731294
3.899500	1.730976
3.900000	1.730339
3.900500	1.730976
3.901000	1.731294
3.901500	1.731294
3.902000	1.730976
3.902500	1.730020
3.903000	1.728109
3.903500	1.728427
3.904000	1.729383
3.904500	1.730976
3.905000	1.730657
3.905500	1.732250
3.906000	1.731931
3.906500	1.730976
3.907000	1.730020
3.907500	1.730020
3.908000	1.731613
3.908500	1.732568
3.909000	1.734480
3.909500	1.733205
3.910000	1.731294
3.910500	1.731613
3.911000	1.730020
3.911500	1.730339
3.912000	1.731294
3.912500	1.731294
3.913000	1.731931
3.913500	1.730976
3.914000	1.729064
3.914500	1.728109
3.915000	1.728427
3.915500	1.728746
3.916000	1.730339
3.916500	1.730657
3.917000	1.731931
3.917500	1.730976
3.918000	1.731294
3.918500	1.730657
3.919000	1.730020
3.919500	1.732568
3.920000	1.733205
3.920500	1.732887
3.921000	1.732887
3.921500	1.731613
3.922000	1.730657
3.922500	1.729383
3.923000	1.729064
3.923500	1.730020
3.924000	1.730657
3.924500	1.730657
3.925000	1.730339
3.925500	1.729064
3.926000	1.728427
3.926500	1.728746
3.927000	1.730339
3.927500	1.730657
3.928000	1.731931
3.928500	1.731931
3.929000	1.731931
3.929500	1.731613
3.930000	1.730657
3.930500	1.730339
3.931000	1.731613
3.931500	1.733205
3.932000	1.733205
3.932500	1.732568
3.933000	1.730020
3.933500	1.730657
3.934000	1.730020
3.934500	1.729702
3.935000	1.730020
3.935500	1.730339
3.936000	1.730657
3.936500	1.730657
3.937000	1.729064
3.937500	1.728427
3.938000	1.728746
3.938500	1.730020
3.939000	1.730976
3.939500	1.732250
3.940000	1.732568
3.940500	1.730657
3.941000	1.730339
3.941500	1.730339
3.942000	1.730657
3.942500	1.731294
3.943000	1.733205
3.943500	1.732568
3.944000	1.732568
3.944500	1.730976
3.945000	1.730657
3.945500	1.730657
3.946000	1.729702
3.946500	1.730339
3.947000	1.730976
3.947500	1.731613
3.948000	1.730657
3.948500	1.730020
3.949000	1.728746
3.949500	1.729064
3.950000	1.729383
3.950500	1.730976
3.951000	1.731931
3.951500	1.731613
3.952000	1.731931
3.952500	1.730339
3.953000	1.730020
3.953500	1.731613
3.954000	1.731294
3.954500	1.733205
3.955000	1.733524
3.955500	1.731931
3.956000	1.731613
3.956500	1.730657
3.957000	1.730020
3.957500	1.730976
3.958000	1.730657
3.958500	1.730657
3.959000	1.731294
3.959500	1.731294
3.960000	1.729702
3.960500	1.728746
3.961000	1.728109
3.961500	1.730020
3.962000	1.730657
3.962500	1.731931
3.963000	1.732250
3.963500	1.731294
3.964000	1.731294
3.964500	1.730020
3.965000	1.730976
3.965500	1.731294
3.966000	1.732887
3.966500	1.732887
3.967000	1.732568
3.967500	1.731613
3.968000	1.730976
3.968500	1.730976
3.969000	1.730020
3.969500	1.730657
3.970000	1.730339
3.970500	1.731294
3.971000	1.730976
3.971500	1.730020
3.972000	1.729383
3.972500	1.729702
3.973000	1.730339
3.973500	1.730657
3.974000	1.731294
3.974500	1.731613
3.975000	1.731931
3.975500	1.731613
3.976000	1.730657
3.976500	1.730020
3.977000	1.732250
3.977500	1.733843
3.978000	1.734798
3.978500	1.733524
3.979000	1.731931
3.979500	1.731613
3.980000	1.730339
3.980500	1.730657
3.981000	1.730976
3.981500	1.730657
3.982000	1.731613
3.982500	1.731613
3.983000	1.730657
3.983500	1.729064
3.984000	1.729064
3.984500	1.729383
3.985000	1.730657
3.985500	1.731294
3.986000	1.732250
3.986500	1.731613
3.987000	1.731931
3.987500	1.730339
3.988000	1.731294
3.988500	1.731294
3.989000	1.732887
3.989500	1.733843
3.990000	1.732887
3.990500	1.732250
3.991000	1.731613
3.991500	1.730339
3.992000	1.730657
3.992500	1.730339
3.993000	1.731294
3.993500	1.731294
3.994000	1.730976
3.994500	1.730339
3.995000	1.728746
3.995500	1.729064
3.996000	1.730339
3.996500	1.730976
3.997000	1.731613
3.997500	1.732250
3.998000	1.731613
3.998500	1.731931
3.999000	1.730976
3.999500	1.731613
4.000000	1.731294
4.000500	1.733524
4.001000	1.733524
4.001500	1.732568
4.002000	1.731931
4.002500	1.730976
4.003000	1.730657
4.003500	1.730657
4.004000	1.730339
4.004500	1.731613
4.005000	1.731931
4.005500	1.731613
4.006000	1.730020
4.006500	1.728427
4.007000	1.728746
4.007500	1.730976
4.008000	1.731931
4.008500	1.731294
4.009000	1.731931
4.009500	1.731613
4.010000	1.730976
4.010500	1.730976
4.011000	1.730657
4.011500	1.731931
4.012000	1.734480
4.012500	1.734161
4.013000	1.733524
4.013500	1.731294
4.014000	1.730657
4.014500	1.729702
4.015000	1.729702
4.015500	1.731294
4.016000	1.731294
4.016500	1.731613
4.017000	1.730976
4.017500	1.730020
4.018000	1.728427
4.018500	1.729064
4.019000	1.729702
4.019500	1.731294
4.020000	1.730976
4.020500	1.731613
4.021000	1.731294
4.021500	1.730976
4.022000	1.730976
4.022500	1.730976
4.023000	1.731613
4.023500	1.733524
4.024000	1.734161
4.024500	1.732568
4.025000	1.731931
4.025500	1.731613
4.026000	1.730976
4.026500	1.730657
4.027000	1.731294
4.027500	1.731613
4.028000	1.731294
4.028500	1.730976
4.029000	1.728746
4.029500	1.729064
4.030000	1.728746
4.030500	1.730657
4.031000	1.730976
4.031500	1.732250
4.032000	1.732887
4.032500	1.731294
4.033000	1.731931
4.033500	1.731294
4.034000	1.730657
4.034500	1.731613
4.035000	1.733843
4.035500	1.734480
4.036000	1.733205
4.036500	1.732568
4.037000	1.731613
4.037500	1.730976
4.038000	1.730020
4.038500	1.730976
4.039000	1.731931
4.039500	1.732568
4.040000	1.731294
4.040500	1.729383
4.041000	1.728746
4.041500	1.728427
4.042000	1.729702
4.042500	1.730976
4.043000	1.731294
4.043500	1.731931
4.044000	1.732250
4.044500	1.731613
4.045000	1.730339
4.045500	1.730976
4.046000	1.731294
4.046500	1.732568
4.047000	1.733524
4.047500	1.733205
4.048000	1.731613
4.048500	1.730976
4.049000	1.730657
4.049500	1.730339
4.050000	1.730020
4.050500	1.730657
4.051000	1.731931
4.051500	1.730976
4.052000	1.730020
4.052500	1.729064
4.053000	1.728427
4.053500	1.729383
4.054000	1.730657
4.054500	1.731613
4.055000	1.731931
4.055500	1.731931
4.056000	1.731931
4.056500	1.731294
4.057000	1.730976
4.057500	1.730976
4.058000	1.731613
4.058500	1.734161
4.059000	1.733843
4.059500	1.731613
4.060000	1.731294
4.060500	1.730339
4.061000	1.729702
4.061500	1.729383
4.062000	1.731613
4.062500	1.731294
4.063000	1.730657
4.063500	1.729702
4.064000	1.728109
4.064500	1.728109
4.065000	1.729383
4.065500	1.730020
4.066000	1.731613
4.066500	1.731931
4.067000	1.731613
4.067500	1.731294
4.068000	1.730976
4.068500	1.730339
4.069000	1.730657
4.069500	1.733205
4.070000	1.734161
4.070500	1.732887
4.071000	1.731294
4.071500	1.730020
4.072000	1.730339
4.072500	1.730657
4.073000	1.729702
4.073500	1.730976
4.074000	1.730657
4.074500	1.731613
4.075000	1.730020
4.075500	1.729064
4.076000	1.728746
4.076500	1.729383
4.077000	1.730339
4.077500	1.730976
4.078000	1.731294
4.078500	1.731613
4.079000	1.731613
4.079500	1.730976
4.080000	1.730657
4.080500	1.730339
4.081000	1.731931
4.081500	1.732887
4.082000	1.733205
4.082500	1.731931
4.083000	1.731294
4.083500	1.730657
4.084000	1.730020
4.084500	1.730657
4.085000	1.731613
4.085500	1.731931
4.086000	1.731294
4.086500	1.730657
4.087000	1.729064
4.087500	1.729383
4.088000	1.729064
4.088500	1.730657
4.089000	1.731294
4.089500	1.732568
4.090000	1.732887
4.090500	1.731613
4.091000	1.730339
4.091500	1.730339
4.092000	1.731294
4.092500	1.733524
4.093000	1.733843
4.093500	1.733524
4.094000	1.731294
4.094500	1.730657
4.095000	1.731294
4.095500	1.730020
4.096000	1.730339
4.096500	1.731613
4.097000	1.732568
4.097500	1.732250
4.098000	1.730657
4.098500	1.729064
4.099000	1.729383
4.099500	1.730657
4.100000	1.730020
4.100500	1.731613
4.101000	1.732250
4.101500	1.732250
4.102000	1.731613
4.102500	1.730657
4.103000	1.731294
4.103500	1.732250
4.104000	1.733205
4.104500	1.734480
4.105000	1.733205
4.105500	1.731931
4.106000	1.730976
4.106500	1.730657
4.107000	1.730657
4.107500	1.730339
4.108000	1.731294
4.108500	1.731931
4.109000	1.731613
4.109500	1.730657
4.110000	1.728746
4.110500	1.728427
4.111000	1.730339
4.111500	1.731613
4.112000	1.732250
4.112500	1.732887
4.113000	1.732568
4.113500	1.730976
4.114000	1.730339
4.114500	1.730976
4.115000	1.731613
4.115500	1.733843
4.116000	1.732887
4.116500	1.733524
4.117000	1.731931
4.117500	1.730339
4.118000	1.729702
4.118500	1.730657
4.119000	1.730657
4.119500	1.730976
4.120000	1.730976
4.120500	1.730339
4.121000	1.729383
4.121500	1.727790
4.122000	1.728109
4.122500	1.730339
4.123000	1.730339
4.123500	1.730339
4.124000	1.731931
4.124500	1.731613
4.125000	1.730976
4.125500	1.730657
4.126000	1.730657
4.126500	1.731931
4.127000	1.733205
4.127500	1.733205
4.128000	1.732568
4.128500	1.730976
4.129000	1.730020
4.129500	1.729702
4.130000	1.729702
4.130500	1.730020
4.131000	1.730657
4.131500	1.731613
4.132000	1.730339
4.132500	1.728746
4.133000	1.728109
4.133500	1.727790
4.134000	1.729064
4.134500	1.730976
4.135000	1.731613
4.135500	1.730976
4.136000	1.731613
4.136500	1.730657
4.137000	1.730657
4.137500	1.730339
4.138000	1.730976
4.138500	1.731931
4.139000	1.733205
4.139500	1.732887
4.140000	1.730976
4.140500	1.730657
4.141000	1.730020
4.141500	1.730339
4.142000	1.730020
4.142500	1.730976
4.143000	1.730976
4.143500	1.731294
4.144000	1.729702
4.144500	1.728427
4.145000	1.728746
4.145500	1.728746
4.146000	1.730976
4.146500	1.731294
4.147000	1.731613
4.147500	1.730339
4.148000	1.730657
4.148500	1.730657
4.149000	1.729383
4.149500	1.731294
4.150000	1.732568
4.150500	1.733205
4.151000	1.731931
4.151500	1.730339
4.152000	1.730657
4.152500	1.730020
4.153000	1.729383
4.153500	1.730020
4.154000	1.730339
4.154500	1.730657
4.155000	1.730657
4.155500	1.729702
4.156000	1.728109
4.156500	1.728427
4.157000	1.729064
4.157500	1.730339
4.158000	1.730339
4.158500	1.730339
4.159000	1.730657
4.159500	1.730339
4.160000	1.730020
4.160500	1.730339
4.161000	1.730976
4.161500	1.732250
4.162000	1.732887
4.162500	1.732250
4.163000	1.730657
4.163500	1.730020
4.164000	1.729702
4.164500	1.728746
4.165000	1.729383
4.165500	1.730020
4.166000	1.730976
4.166500	1.730657
4.167000	1.729064
4.167500	1.728427
4.168000	1.726835
4.168500	1.729064
4.169000	1.729064
4.169500	1.730976
4.170000	1.731613
4.170500	1.731613
4.171000	1.730657
4.171500	1.730020
4.172000	1.729383
4.172500	1.730976
4.173000	1.733524
4.173500	1.733205
4.174000	1.731931
4.174500	1.731294
4.175000	1.730657
4.175500	1.729702
4.176000	1.729064
4.176500	1.729702
4.177000	1.730339
4.177500	1.730976
4.178000	1.730339
4.178500	1.729383
4.179000	1.729064
4.179500	1.728746
4.180000	1.729064
4.180500	1.730020
4.181000	1.730657
4.181500	1.731931
4.182000	1.730976
4.182500	1.730976
4.183000	1.730020
4.183500	1.730657
4.184000	1.730339
4.184500	1.732250
4.185000	1.733524
4.185500	1.732887
4.186000	1.730976
4.186500	1.730339
4.187000	1.728746
4.187500	1.729064
4.188000	1.728746
4.188500	1.729702
4.189000	1.730976
4.189500	1.730976
4.190000	1.728427
4.190500	1.728109
4.191000	1.728427
4.191500	1.729383
4.192000	1.730339
4.192500	1.731294
4.193000	1.730976
4.193500	1.731294
4.194000	1.730976
4.194500	1.729702
4.195000	1.729064
4.195500	1.730657
4.196000	1.732250
4.196500	1.732887
4.197000	1.732568
4.197500	1.730976
4.198000	1.729702
4.198500	1.728746
4.199000	1.729064
4.199500	1.729064
4.200000	1.730339
4.200500	1.730339
4.201000	1.729383
4.201500	1.728746
4.202000	1.727790
4.202500	1.727472
4.203000	1.729383
4.203500	1.730020
4.204000	1.730976
4.204500	1.731294
4.205000	1.730657
4.205500	1.729702
4.206000	1.729702
4.206500	1.729702
4.207000	1.731294
4.207500	1.731931
4.208000	1.732250
4.208500	1.731931
4.209000	1.729702
4.209500	1.729064
4.210000	1.729064
4.210500	1.729702
4.211000	1.729702
4.211500	1.730339
4.212000	1.730976
4.212500	1.730020
4.213000	1.728109
4.213500	1.726835
4.214000	1.728427
4.214500	1.730020
4.215000	1.730339
4.215500	1.730976
4.216000	1.731613
4.216500	1.730339
4.217000	1.730020
4.217500	1.730020
4.218000	1.730339
4.218500	1.731294
4.219000	1.732887
4.219500	1.733524
4.220000	1.732250
4.220500	1.730020
4.221000	1.730020
4.221500	1.730339
4.222000	1.729702
4.222500	1.730020
4.223000	1.730657
4.223500	1.730657
4.224000	1.730020
4.224500	1.729064
4.225000	1.728109
4.225500	1.728109
4.226000	1.729383
4.226500	1.730339
4.227000	1.730976
4.227500	1.730976
4.228000	1.730657
4.228500	1.730020
4.229000	1.728427
4.229500	1.730657
4.230000	1.730976
4.230500	1.733524
4.231000	1.733205
4.231500	1.731931
4.232000	1.730976
4.232500	1.730657
4.233000	1.730339
4.233500	1.729064
4.234000	1.729702
4.234500	1.730020
4.235000	1.730976
4.235500	1.730339
4.236000	1.728427
4.236500	1.727472
4.237000	1.727472
4.237500	1.729383
4.238000	1.729064
4.238500	1.730657
4.239000	1.730976
4.239500	1.730657
4.240000	1.730020
4.240500	1.729383
4.241000	1.730020
4.241500	1.731613
4.242000	1.732568
4.242500	1.732250
4.243000	1.732250
4.243500	1.730020
4.244000	1.730339
4.244500	1.730339
4.245000	1.729702
4.245500	1.729702
4.246000	1.730657
4.246500	1.730976
4.247000	1.730339
4.247500	1.729383
4.248000	1.727153
4.248500	1.727790
4.249000	1.729383
4.249500	1.730020
4.250000	1.730976
4.250500	1.730976
4.251000	1.730657
4.251500	1.730339
4.252000	1.730339
4.252500	1.730020
4.253000	1.731613
4.253500	1.732568
4.254000	1.733205
4.254500	1.733205
4.255000	1.731294
4.255500	1.729702
4.256000	1.729383
4.256500	1.728427
4.257000	1.729064
4.257500	1.730339
4.258000	1.730657
4.258500	1.730020
4.259000	1.729383
4.259500	1.728109
4.260000	1.727472
4.260500	1.728746
4.261000	1.730020
4.261500	1.730657
4.262000	1.731613
4.262500	1.730657
4.263000	1.730657
4.263500	1.730020
4.264000	1.730020
4.264500	1.730020
4.265000	1.732250
4.265500	1.732568
4.266000	1.731931
4.266500	1.730976
4.267000	1.730020
4.267500	1.730657
4.268000	1.729064
4.268500	1.729064
4.269000	1.730339
4.269500	1.731294
4.270000	1.730976
4.270500	1.730020
4.271000	1.728427
4.271500	1.727790
4.272000	1.727790
4.272500	1.730657
4.273000	1.730339
4.273500	1.731613
4.274000	1.732250
4.274500	1.731613
4.275000	1.730339
4.275500	1.729702
4.276000	1.731294
4.276500	1.731931
4.277000	1.732568
4.277500	1.732887
4.278000	1.731931
4.278500	1.730339
4.279000	1.730339
4.279500	1.729702
4.280000	1.729702
4.280500	1.729383
4.281000	1.730976
4.281500	1.730976
4.282000	1.730657
4.282500	1.729702
4.283000	1.728427
4.283500	1.728427
4.284000	1.730020
4.284500	1.730020
4.285000	1.730976
4.285500	1.731613
4.286000	1.731613
4.286500	1.730976
4.287000	1.730020
4.287500	1.730657
4.288000	1.731613
4.288500	1.732250
4.289000	1.733524
4.289500	1.732250
4.290000	1.730976
4.290500	1.730339
4.291000	1.729702
4.291500	1.730020
4.292000	1.730657
4.292500	1.730657
4.293000	1.730657
4.293500	1.730339
4.294000	1.730020
4.294500	1.728109
4.295000	1.728427
4.295500	1.729383
4.296000	1.729383
4.296500	1.730339
4.297000	1.731294
4.297500	1.731294
4.298000	1.730976
4.298500	1.730657
4.299000	1.730020
4.299500	1.730976
4.300000	1.732568
4.300500	1.733843
4.301000	1.732887
4.301500	1.731613
4.302000	1.730339
4.302500	1.730657
4.303000	1.729702
4.303500	1.729702
4.304000	1.730339
4.304500	1.731294
4.305000	1.731294
4.305500	1.730339
4.306000	1.728427
4.306500	1.728427
4.307000	1.729702
4.307500	1.730339
4.308000	1.731613
4.308500	1.731294
4.309000	1.731613
4.309500	1.731613
4.310000	1.730976
4.310500	1.730657
4.311000	1.731294
4.311500	1.733205
4.312000	1.733843
4.312500	1.733524
4.313000	1.732568
4.313500	1.732568
4.314000	1.730976
4.314500	1.729702
4.315000	1.730339
4.315500	1.730976
4.316000	1.732250
4.316500	1.731931
4.317000	1.730339
4.317500	1.729702
4.318000	1.728746
4.318500	1.729064
4.319000	1.730339
4.319500	1.731294
4.320000	1.731931
4.320500	1.732250
4.321000	1.731931
4.321500	1.731294
4.322000	1.730657
4.322500	1.731294
4.323000	1.731931
4.323500	1.733524
4.324000	1.734161
4.324500	1.733205
4.325000	1.731931
4.325500	1.730657
4.326000	1.730657
4.326500	1.730020
4.327000	1.730339
4.327500	1.731931
4.328000	1.731931
4.328500	1.731613
4.329000	1.729702
4.329500	1.728746
4.330000	1.728109
4.330500	1.729383
4.331000	1.730976
4.331500	1.732250
4.332000	1.731294
4.332500	1.731931
4.333000	1.731613
4.333500	1.730976
4.334000	1.730339
4.334500	1.730976
4.335000	1.732887
4.335500	1.732568
4.336000	1.732568
4.336500	1.731613
4.337000	1.730976
4.337500	1.730020
4.338000	1.729383
4.338500	1.731294
4.339000	1.730657
4.339500	1.731613
4.340000	1.731294
4.340500	1.730020
4.341000	1.728746
4.341500	1.727790
4.342000	1.729702
4.342500	1.730976
4.343000	1.731294
4.343500	1.731613
4.344000	1.730976
4.344500	1.731613
4.345000	1.731613
4.345500	1.730657
4.346000	1.731294
4.346500	1.732568
4.347000	1.733205
4.347500	1.734161
4.348000	1.731613
4.348500	1.731294
4.349000	1.730657
4.349500	1.730020
4.350000	1.729702
4.350500	1.730976
4.351000	1.730657
4.351500	1.731294
4.352000	1.730020
4.352500	1.728746
4.353000	1.728427
4.353500	1.729702
4.354000	1.731294
4.354500	1.731613
4.355000	1.731931
4.355500	1.731613
4.356000	1.731931
4.356500	1.730339
4.357000	1.730020
4.357500	1.731294
4.358000	1.733524
4.358500	1.733524
4.359000	1.733205
4.359500	1.732250
4.360000	1.731294
4.360500	1.730976
4.361000	1.730020
4.361500	1.731294
4.362000	1.730976
4.362500	1.731613
4.363000	1.731294
4.363500	1.730020
4.364000	1.728746
4.364500	1.729064
4.365000	1.730020
4.365500	1.731294
4.366000	1.730339
4.366500	1.731294
4.367000	1.731613
4.367500	1.731613
4.368000	1.730657
4.368500	1.730339
4.369000	1.731613
4.369500	1.732250
4.370000	1.734161
4.370500	1.733205
4.371000	1.732250
4.371500	1.731294
4.372000	1.730339
4.372500	1.730020
4.373000	1.730657
4.373500	1.731294
4.374000	1.730976
4.374500	1.731294
4.375000	1.729702
4.375500	1.728109
4.376000	1.729383
4.376500	1.729702
4.377000	1.730657
4.377500	1.731294
4.378000	1.732250
4.378500	1.731613
4.379000	1.731294
4.379500	1.730976
4.380000	1.730657
4.380500	1.731931
4.381000	1.732887
4.381500	1.733843
4.382000	1.733205
4.382500	1.731931
4.383000	1.730339
4.383500	1.730020
4.384000	1.730339
4.384500	1.730657
4.385000	1.730657
4.385500	1.731931
4.386000	1.731294
4.386500	1.730657
4.387000	1.729383
4.387500	1.728746
4.388000	1.729702
4.388500	1.730657
4.389000	1.731294
4.389500	1.732250
4.390000	1.731931
4.390500	1.730976
4.391000	1.731294
4.391500	1.730657
4.392000	1.731294
4.392500	1.732250
4.393000	1.733524
4.393500	1.734161
4.394000	1.732250
4.394500	1.731613
4.395000	1.730339
4.395500	1.729702
4.396000	1.730339
4.396500	1.731613
4.397000	1.731613
4.397500	1.730657
4.398000	1.729383
4.398500	1.728427
4.399000	1.728109
4.399500	1.730020
4.400000	1.730657
4.400500	1.731294
4.401000	1.731931
4.401500	1.731613
4.402000	1.731294
4.402500	1.730020
4.403000	1.730657
4.403500	1.731613
4.404000	1.733205
4.404500	1.733843
4.405000	1.732568
4.405500	1.732568
4.406000	1.731613
4.406500	1.730657
4.407000	1.730020
4.407500	1.730657
4.408000	1.730657
4.408500	1.732250
4.409000	1.731613
4.409500	1.729383
4.410000	1.729383
4.410500	1.728109
4.411000	1.729064
4.411500	1.730657
4.412000	1.729702
4.412500	1.731931
4.413000	1.731294
4.413500	1.731613
4.414000	1.730657
4.414500	1.730339
4.415000	1.730976
4.415500	1.732568
4.416000	1.732568
4.416500	1.732887
4.417000	1.731294
4.417500	1.730657
4.418000	1.730339
4.418500	1.730339
4.419000	1.730657
4.419500	1.730657
4.420000	1.730657
4.420500	1.730976
4.421000	1.730020
4.421500	1.728746
4.422000	1.727790
4.422500	1.729383
4.423000	1.729383
4.423500	1.730339
4.424000	1.730976
4.424500	1.731931
4.425000	1.732250
4.425500	1.730339
4.426000	1.730657
4.426500	1.731613
4.427000	1.733205
4.427500	1.733524
4.428000	1.733205
4.428500	1.732568
4.429000	1.731294
4.429500	1.730657
4.430000	1.730339
4.430500	1.730020
4.431000	1.730657
4.431500	1.731294
4.432000	1.731613
4.432500	1.730657
4.433000	1.729383
4.433500	1.728427
4.434000	1.729702
4.434500	1.730339
4.435000	1.731294
4.435500	1.732250
4.436000	1.731613
4.436500	1.732568
4.437000	1.731931
4.437500	1.730976
4.438000	1.730657
4.438500	1.732887
4.439000	1.734480
4.439500	1.734480
4.440000	1.733843
4.440500	1.731931
4.441000	1.731613
4.441500	1.730657
4.442000	1.729702
4.442500	1.730976
4.443000	1.731931
4.443500	1.732568
4.444000	1.731294
4.444500	1.730976
4.445000	1.728427
4.445500	1.729383
4.446000	1.730657
4.446500	1.731931
4.447000	1.730976
4.447500	1.732887
4.448000	1.731931
4.448500	1.731294
4.449000	1.730657
4.449500	1.730976
4.450000	1.731613
4.450500	1.733205
4.451000	1.733843
4.451500	1.732568
4.452000	1.731613
4.452500	1.730657
4.453000	1.730339
4.453500	1.730657
4.454000	1.730657
4.454500	1.731931
4.455000	1.731294
4.455500	1.730657
4.456000	1.730020
4.456500	1.729383
4.457000	1.729702
4.457500	1.730339
4.458000	1.730976
4.458500	1.731931
4.459000	1.731613
4.459500	1.731294
4.460000	1.731613
4.460500	1.730976
4.461000	1.731294
4.461500	1.732568
4.462000	1.733843
4.462500	1.734161
4.463000	1.732568
4.463500	1.731613
4.464000	1.730976
4.464500	1.730657
4.465000	1.730339
4.465500	1.731294
4.466000	1.730657
4.466500	1.731613
4.467000	1.730976
4.467500	1.729064
4.468000	1.729064
4.468500	1.728109
4.469000	1.729702
4.469500	1.730339
4.470000	1.731613
4.470500	1.731931
4.471000	1.732568
4.471500	1.730657
4.472000	1.730657
4.472500	1.730020
4.473000	1.730976
4.473500	1.732887
4.474000	1.732568
4.474500	1.732568
4.475000	1.730657
4.475500	1.730657
4.476000	1.729702
4.476500	1.730020
4.477000	1.730339
4.477500	1.730657
4.478000	1.730976
4.478500	1.730339
4.479000	1.729383
4.479500	1.727472
4.480000	1.727472
4.480500	1.729383
4.481000	1.729702
4.481500	1.730657
4.482000	1.730976
4.482500	1.731294
4.483000	1.730657
4.483500	1.730339
4.484000	1.730020
4.484500	1.731294
4.485000	1.732887
4.485500	1.733205
4.486000	1.732887
4.486500	1.731294
4.487000	1.730657
4.487500	1.730339
4.488000	1.730020
4.488500	1.729702
4.489000	1.731294
4.489500	1.732250
4.490000	1.731294
4.490500	1.730020
4.491000	1.728427
4.491500	1.728109
4.492000	1.729064
4.492500	1.730976
4.493000	1.731931
4.493500	1.732250
4.494000	1.731931
4.494500	1.731931
4.495000	1.730976
4.495500	1.731294
4.496000	1.731613
4.496500	1.733205
4.497000	1.734798
4.497500	1.732887
4.498000	1.731931
4.498500	1.730657
4.499000	1.730657
4.499500	1.730976
4.500000	1.730020
4.500500	1.731294
4.501000	1.731931
4.501500	1.730657
4.502000	1.730657
4.502500	1.730020
4.503000	1.729064
4.503500	1.729383
4.504000	1.731931
4.504500	1.731931
4.505000	1.732250
4.505500	1.732250
4.506000	1.732250
4.506500	1.731294
4.507000	1.731931
4.507500	1.731613
4.508000	1.732568
4.508500	1.734161
4.509000	1.732887
4.509500	1.731931
4.510000	1.731294
4.510500	1.730976
4.511000	1.730657
4.511500	1.731294
4.512000	1.731613
4.512500	1.732568
4.513000	1.731613
4.513500	1.730020
4.514000	1.729702
4.514500	1.730020
4.515000	1.730976
4.515500	1.731294
4.516000	1.732250
4.516500	1.732887
4.517000	1.732568
4.517500	1.732250
4.518000	1.730976
4.518500	1.730657
4.519000	1.732568
4.519500	1.733205
4.520000	1.734798
4.520500	1.733205
4.521000	1.732887
4.521500	1.731931
4.522000	1.730657
4.522500	1.731613
4.523000	1.730976
4.523500	1.731613
4.524000	1.732250
4.524500	1.731613
4.525000	1.730339
4.525500	1.729064
4.526000	1.729383
4.526500	1.730657
4.527000	1.731294
4.527500	1.731613
4.528000	1.731294
4.528500	1.731931
4.529000	1.731613
4.529500	1.730976
4.530000	1.730657
4.530500	1.731931
4.531000	1.733843
4.531500	1.733843
4.532000	1.733524
4.532500	1.732250
4.533000	1.730976
4.533500	1.731294
4.534000	1.730657
4.534500	1.731294
4.535000	1.731931
4.535500	1.731613
4.536000	1.732250
4.536500	1.729383
4.537000	1.729064
4.537500	1.728746
4.538000	1.730020
4.538500	1.730657
4.539000	1.730976
4.539500	1.731931
4.540000	1.731931
4.540500	1.732568
4.541000	1.731294
4.541500	1.730657
4.542000	1.732250
4.542500	1.733205
4.543000	1.733843
4.543500	1.734161
4.544000	1.733205
4.544500	1.732568
4.545000	1.730976
4.545500	1.731613
4.546000	1.730976
4.546500	1.731931
4.547000	1.732887
4.547500	1.731931
4.548000	1.730657
4.548500	1.729383
4.549000	1.728746
4.549500	1.729383
4.550000	1.730657
4.550500	1.731931
4.551000	1.733205
4.551500	1.732568
4.552000	1.733205
4.552500	1.731613
4.553000	1.730976
4.553500	1.731613
4.554000	1.733524
4.554500	1.734798
4.555000	1.734161
4.555500	1.733205
4.556000	1.731931
4.556500	1.730976
4.557000	1.730339
4.557500	1.731294
4.558000	1.731931
4.558500	1.731613
4.559000	1.732250
4.559500	1.730976
4.560000	1.730020
4.560500	1.728109
4.561000	1.730020
4.561500	1.731931
4.562000	1.731931
4.562500	1.733524
4.563000	1.733524
4.563500	1.732568
4.564000	1.731931
4.564500	1.731613
4.565000	1.731931
4.565500	1.733205
4.566000	1.734480
4.566500	1.733843
4.567000	1.733205
4.567500	1.732250
4.568000	1.731294
4.568500	1.730976
4.569000	1.730020
4.569500	1.730976
4.570000	1.731931
4.570500	1.732250
4.571000	1.731294
4.571500	1.730339
4.572000	1.728427
4.572500	1.729064
4.573000	1.730339
4.573500	1.731294
4.574000	1.731931
4.574500	1.732250
4.575000	1.732568
4.575500	1.731294
4.576000	1.731613
4.576500	1.731294
4.577000	1.731931
4.577500	1.733205
4.578000	1.733524
4.578500	1.732568
4.579000	1.731931
4.579500	1.731294
4.580000	1.730657
4.580500	1.730339
4.581000	1.730657
4.581500	1.732250
4.582000	1.732887
4.582500	1.731294
4.583000	1.730020
4.583500	1.729064
4.584000	1.729383
4.584500	1.730020
4.585000	1.730976
4.585500	1.731613
4.586000	1.732250
4.586500	1.731931
4.587000	1.730657
4.587500	1.731613
4.588000	1.730657
4.588500	1.731931
4.589000	1.733843
4.589500	1.733205
4.590000	1.731931
4.590500	1.731931
4.591000	1.730657
4.591500	1.729702
4.592000	1.730020
4.592500	1.730339
4.593000	1.730976
4.593500	1.731613
4.594000	1.730976
4.594500	1.730339
4.595000	1.728427
4.595500	1.728746
4.596000	1.729383
4.596500	1.730020
4.597000	1.731294
4.597500	1.730976
4.598000	1.732250
4.598500	1.730976
4.599000	1.730657
4.599500	1.730657
4.600000	1.730976
4.600500	1.732568
4.601000	1.733843
4.601500	1.733524
4.602000	1.732568
4.602500	1.730339
4.603000	1.730976
4.603500	1.730020
4.604000	1.730020
4.604500	1.730976
4.605000	1.731613
4.605500	1.730976
4.606000	1.730339
4.606500	1.728746
4.607000	1.728746
4.607500	1.730020
4.608000	1.730657
4.608500	1.731294
4.609000	1.731931
4.609500	1.731613
4.610000	1.731931
4.610500	1.731294
4.611000	1.730657
4.611500	1.731613
4.612000	1.732568
4.612500	1.734480
4.613000	1.733205
4.613500	1.731931
4.614000	1.730976
4.614500	1.730657
4.615000	1.730020
4.615500	1.730339
4.616000	1.730657
4.616500	1.730976
4.617000	1.730976
4.617500	1.730339
4.618000	1.728746
4.618500	1.728109
4.619000	1.729702
4.619500	1.730976
4.620000	1.730976
4.620500	1.731613
4.621000	1.731613
4.621500	1.731613
4.622000	1.731294
4.622500	1.730976
4.623000	1.730339
4.623500	1.732568
4.624000	1.733205
4.624500	1.733205
4.625000	1.732568
4.625500	1.731613
4.626000	1.730020
4.626500	1.729702
4.627000	1.730339
4.627500	1.730339
4.628000	1.731931
4.628500	1.731613
4.629000	1.730339
4.629500	1.728746
4.630000	1.728109
4.630500	1.729383
4.631000	1.730657
4.631500	1.731613
4.632000	1.731931
4.632500	1.731613
4.633000	1.731613
4.633500	1.730657
4.634000	1.729702
4.634500	1.730976
4.635000	1.732250
4.635500	1.733205
4.636000	1.732887
4.636500	1.731613
4.637000	1.731294
4.637500	1.731294
4.638000	1.730339
4.638500	1.729702
4.639000	1.730657
4.639500	1.731931
4.640000	1.731294
4.640500	1.730339
4.641000	1.728746
4.641500	1.728427
4.642000	1.729702
4.642500	1.731294
4.643000	1.730339
4.643500	1.731931
4.644000	1.732250
4.644500	1.731931
4.645000	1.731294
4.645500	1.730657
4.646000	1.730976
4.646500	1.732250
4.647000	1.733843
4.647500	1.733524
4.648000	1.732250
4.648500	1.731294
4.649000	1.731294
4.649500	1.731294
4.650000	1.730657
4.650500	1.731294
4.651000	1.731294
4.651500	1.731613
4.652000	1.731294
4.652500	1.729064
4.653000	1.728746
4.653500	1.729064
4.654000	1.730339
4.654500	1.731931
4.655000	1.732568
4.655500	1.731931
4.656000	1.731294
4.656500	1.730976
4.657000	1.730657
4.657500	1.730976
4.658000	1.733205
4.658500	1.733205
4.659000	1.734161
4.659500	1.732250
4.660000	1.731294
4.660500	1.731613
4.661000	1.730976
4.661500	1.731294
4.662000	1.730976
4.662500	1.731613
4.663000	1.731613
4.663500	1.730976
4.664000	1.729064
4.664500	1.728427
4.665000	1.730020
4.665500	1.731294
4.666000	1.731613
4.666500	1.731931
4.667000	1.731613
4.667500	1.732887
4.668000	1.731931
4.668500	1.730976
4.669000	1.731294
4.669500	1.733205
4.670000	1.734480
4.670500	1.733524
4.671000	1.732568
4.671500	1.732568
4.672000	1.731294
4.672500	1.730976
4.673000	1.731294
4.673500	1.731613
4.674000	1.733524
4.674500	1.731931
4.675000	1.731613
4.675500	1.730657
4.676000	1.729702
4.676500	1.729383
4.677000	1.731613
4.677500	1.731931
4.678000	1.733205
4.678500	1.732887
4.679000	1.732887
4.679500	1.731613
4.680000	1.731931
4.680500	1.732250
4.681000	1.734161
4.681500	1.735117
4.682000	1.734798
4.682500	1.733524
4.683000	1.732568
4.683500	1.731613
4.684000	1.730657
4.684500	1.731294
4.685000	1.731613
4.685500	1.732887
4.686000	1.731931
4.686500	1.731294
4.687000	1.730020
4.687500	1.729702
4.688000	1.730657
4.688500	1.731613
4.689000	1.732887
4.689500	1.732887
4.690000	1.732887
4.690500	1.732250
4.691000	1.732250
4.691500	1.731931
4.692000	1.731931
4.692500	1.733524
4.693000	1.734798
4.693500	1.734798
4.694000	1.733843
4.694500	1.731931
4.695000	1.731931
4.695500	1.731294
4.696000	1.731294
4.696500	1.732250
4.697000	1.732250
4.697500	1.732568
4.698000	1.730976
4.698500	1.730339
4.699000	1.730020
4.699500	1.730657
4.700000	1.730976
4.700500	1.731931
4.701000	1.733205
4.701500	1.733524
4.702000	1.732250
4.702500	1.732568
4.703000	1.731613
4.703500	1.731931
4.704000	1.733205
4.704500	1.734798
4.705000	1.735117
4.705500	1.732568
4.706000	1.731931
4.706500	1.730657
4.707000	1.730657
4.707500	1.730657
4.708000	1.730976
4.708500	1.731931
4.709000	1.731931
4.709500	1.730976
4.710000	1.729383
4.710500	1.728746
4.711000	1.730020
4.711500	1.730976
4.712000	1.731931
4.712500	1.731931
4.713000	1.732250
4.713500	1.731613
4.714000	1.731613
4.714500	1.730339
4.715000	1.730976
4.715500	1.732568
4.716000	1.733843
4.716500	1.733524
4.717000	1.731931
4.717500	1.731931
4.718000	1.730339
4.718500	1.730657
4.719000	1.730339
4.719500	1.731931
4.720000	1.731294
4.720500	1.731931
4.721000	1.730976
4.721500	1.730020
4.722000	1.729383
4.722500	1.729702
4.723000	1.730020
4.723500	1.731294
4.724000	1.731931
4.724500	1.732250
4.725000	1.732887
4.725500	1.730976
4.726000	1.730976
4.726500	1.732250
4.727000	1.732250
4.727500	1.734161
4.728000	1.734480
4.728500	1.733205
4.729000	1.732568
4.729500	1.730657
4.730000	1.730020
4.730500	1.731613
4.731000	1.730657
4.731500	1.731931
4.732000	1.731931
4.732500	1.731613
4.733000	1.730020
4.733500	1.729383
4.734000	1.729383
4.734500	1.730657
4.735000	1.731931
4.735500	1.732887
4.736000	1.733205
4.736500	1.731931
4.737000	1.731931
4.737500	1.730657
4.738000	1.731613
4.738500	1.731931
4.739000	1.733524
4.739500	1.735117
4.740000	1.733524
4.740500	1.732568
4.741000	1.731931
4.741500	1.732250
4.742000	1.731294
4.742500	1.730657
4.743000	1.732568
4.743500	1.732568
4.744000	1.731613
4.744500	1.730339
4.745000	1.729702
4.745500	1.730339
4.746000	1.730976
4.746500	1.731931
4.747000	1.732887
4.747500	1.732887
4.748000	1.732887
4.748500	1.731931
4.749000	1.731613
4.749500	1.731931
4.750000	1.733205
4.750500	1.735117
4.751000	1.734161
4.751500	1.733843
4.752000	1.732568
4.752500	1.731931
4.753000	1.730976
4.753500	1.731931
4.754000	1.731294
4.754500	1.731294
4.755000	1.732887
4.755500	1.732250
4.756000	1.730020
4.756500	1.729383
4.757000	1.730657
4.757500	1.730657
4.758000	1.732568
4.758500	1.732250
4.759000	1.733524
4.759500	1.732568
4.760000	1.731613
4.760500	1.731931
4.761000	1.731931
4.761500	1.732887
4.762000	1.733843
4.762500	1.734161
4.763000	1.734480
4.763500	1.732568
4.764000	1.732887
4.764500	1.731613
4.765000	1.730339
4.765500	1.731613
4.766000	1.732568
4.766500	1.732568
4.767000	1.731931
4.767500	1.730976
4.768000	1.729383
4.768500	1.729702
4.769000	1.731294
4.769500	1.731613
4.770000	1.732887
4.770500	1.733843
4.771000	1.732887
4.771500	1.732568
4.772000	1.732250
4.772500	1.732250
4.773000	1.733205
4.773500	1.735117
4.774000	1.735117
4.774500	1.734480
4.775000	1.733205
4.775500	1.731931
4.776000	1.731613
4.776500	1.731294
4.777000	1.731931
4.777500	1.732250
4.778000	1.733205
4.778500	1.733205
4.779000	1.731931
4.779500	1.729702
4.780000	1.730657
4.780500	1.730657
4.781000	1.732250
4.781500	1.732887
4.782000	1.733205
4.782500	1.732887
4.783000	1.731931
4.783500	1.733205
4.784000	1.731613
4.784500	1.733524
4.785000	1.735117
4.785500	1.734798
4.786000	1.734480
4.786500	1.733205
4.787000	1.731931
4.787500	1.731931
4.788000	1.731931
4.788500	1.731931
4.789000	1.732887
4.789500	1.733843
4.790000	1.731931
4.790500	1.730657
4.791000	1.730020
4.791500	1.730339
4.792000	1.731294
4.792500	1.732887
4.793000	1.732887
4.793500	1.733843
4.794000	1.733205
4.794500	1.732250
4.795000	1.732250
4.795500	1.732250
4.796000	1.733205
4.796500	1.735117
4.797000	1.734798
4.797500	1.733843
4.798000	1.733524
4.798500	1.731294
4.799000	1.731294
4.799500	1.731294
4.800000	1.732250
4.800500	1.732250
4.801000	1.732887
4.801500	1.731613
4.802000	1.730339
4.802500	1.730020
4.803000	1.730657
4.803500	1.732250
4.804000	1.732887
4.804500	1.733205
4.805000	1.732568
4.805500	1.733205
4.806000	1.732250
4.806500	1.731613
4.807000	1.732250
4.807500	1.734161
4.808000	1.735435
4.808500	1.734161
4.809000	1.733843
4.809500	1.732887
4.810000	1.732568
4.810500	1.731931
4.811000	1.731931
4.811500	1.732568
4.812000	1.733205
4.812500	1.733205
4.813000	1.731613
4.813500	1.730339
4.814000	1.729702
4.814500	1.731613
4.815000	1.732568
4.815500	1.732250
4.816000	1.732250
4.816500	1.733205
4.817000	1.733205
4.817500	1.731613
4.818000	1.732250
4.818500	1.733205
4.819000	1.733843
4.819500	1.735117
4.820000	1.734798
4.820500	1.732250
4.821000	1.732250
4.821500	1.731613
4.822000	1.731294
4.822500	1.731931
4.823000	1.731294
4.823500	1.732568
4.824000	1.732568
4.824500	1.730976
4.825000	1.730976
4.825500	1.730339
4.826000	1.730976
4.826500	1.731613
4.827000	1.733205
4.827500	1.734161
4.828000	1.733205
4.828500	1.732887
4.829000	1.732250
4.829500	1.731613
4.830000	1.733205
4.830500	1.734161
4.831000	1.735117
4.831500	1.734798
4.832000	1.732568
4.832500	1.732568
4.833000	1.731294
4.833500	1.731294
4.834000	1.730976
4.834500	1.731931
4.835000	1.732568
4.835500	1.732250
4.836000	1.731294
4.836500	1.730339
4.837000	1.729064
4.837500	1.731613
4.838000	1.731931
4.838500	1.733524
4.839000	1.733205
4.839500	1.732887
4.840000	1.732568
4.840500	1.732250
4.841000	1.731931
4.841500	1.732887
4.842000	1.734798
4.842500	1.735117
4.843000	1.735117
4.843500	1.733843
4.844000	1.732250
4.844500	1.731613
4.845000	1.730976
4.845500	1.732568
4.846000	1.731931
4.846500	1.733843
4.847000	1.733205
4.847500	1.731613
4.848000	1.730020
4.848500	1.730339
4.849000	1.731613
4.849500	1.732887
4.850000	1.733524
4.850500	1.733524
4.851000	1.733205
4.851500	1.732250
4.852000	1.732568
4.852500	1.732568
4.853000	1.733843
4.853500	1.735117
4.854000	1.734798
4.854500	1.735117
4.855000	1.732887
4.855500	1.732887
4.856000	1.732250
4.856500	1.731613
4.857000	1.731931
4.857500	1.731931
4.858000	1.733205
4.858500	1.732568
4.859000	1.731294
4.859500	1.729702
4.860000	1.729702
4.860500	1.731931
4.861000	1.731931
4.861500	1.732887
4.862000	1.733524
4.862500	1.733205
4.863000	1.732250
4.863500	1.731613
4.864000	1.731294
4.864500	1.732250
4.865000	1.734798
4.865500	1.734480
4.866000	1.734480
4.866500	1.733205
4.867000	1.731931
4.867500	1.731613
4.868000	1.731613
4.868500	1.731931
4.869000	1.731931
4.869500	1.732568
4.870000	1.732250
4.870500	1.730976
4.871000	1.730339
4.871500	1.729702
4.872000	1.730657
4.872500	1.732250
4.873000	1.733524
4.873500	1.733524
4.874000	1.732568
4.874500	1.732250
4.875000	1.730976
4.875500	1.731294
4.876000	1.733205
4.876500	1.734161
4.877000	1.734480
4.877500	1.733524
4.878000	1.733205
4.878500	1.731931
4.879000	1.732568
4.879500	1.731294
4.880000	1.731294
4.880500	1.732887
4.881000	1.732887
4.881500	1.732250
4.882000	1.730339
4.882500	1.729702
4.883000	1.730020
4.883500	1.731294
4.884000	1.731613
4.884500	1.732250
4.885000	1.733205
4.885500	1.733524
4.886000	1.732250
4.886500	1.731613
4.887000	1.731931
4.887500	1.733205
4.888000	1.734161
4.888500	1.735435
4.889000	1.734798
4.889500	1.732568
4.890000	1.732250
4.890500	1.731294
4.891000	1.731613
4.891500	1.731613
4.892000	1.732250
4.892500	1.732887
4.893000	1.731931
4.893500	1.730339
4.894000	1.730020
4.894500	1.730657
4.895000	1.730339
4.895500	1.732250
4.896000	1.733205
4.896500	1.732887
4.897000	1.732568
4.897500	1.732887
4.898000	1.731294
4.898500	1.732887
4.899000	1.733205
4.899500	1.733843
4.900000	1.734798
4.900500	1.733205
4.901000	1.732568
4.901500	1.731613
4.902000	1.731294
4.902500	1.731613
4.903000	1.731931
4.903500	1.732568
4.904000	1.732887
4.904500	1.732887
4.905000	1.730020
4.905500	1.729702
4.906000	1.730020
4.906500	1.731613
4.907000	1.732887
4.907500	1.733205
4.908000	1.733205
4.908500	1.732568
4.909000	1.732568
4.909500	1.731613
4.910000	1.731931
4.910500	1.733524
4.911000	1.735117
4.911500	1.734798
4.912000	1.734480
4.912500	1.732887
4.913000	1.731294
4.913500	1.730976
4.914000	1.731294
4.914500	1.732250
4.915000	1.732887
4.915500	1.733205
4.916000	1.731931
4.916500	1.730339
4.917000	1.729383
4.917500	1.730339
4.918000	1.731294
4.918500	1.732568
4.919000	1.732887
4.919500	1.732887
4.920000	1.732887
4.920500	1.732250
4.921000	1.732887
4.921500	1.731931
4.922000	1.732250
4.922500	1.734161
4.923000	1.734480
4.923500	1.733205
4.924000	1.732568
4.924500	1.731931
4.925000	1.730976
4.925500	1.731613
4.926000	1.731613
4.926500	1.731931
4.927000	1.733524
4.927500	1.732250
4.928000	1.730657
4.928500	1.730020
4.929000	1.730339
4.929500	1.731613
4.930000	1.731931
4.930500	1.733524
4.931000	1.733205
4.931500	1.732250
4.932000	1.732887
4.932500	1.732250
4.933000	1.731613
4.933500	1.733524
4.934000	1.734161
4.934500	1.735117
4.935000	1.734161
4.935500	1.732250
4.936000	1.731931
4.936500	1.731613
4.937000	1.731613
4.937500	1.731931
4.938000	1.732250
4.938500	1.731931
4.939000	1.731931
4.939500	1.730339
4.940000	1.729064
4.940500	1.730020
4.941000	1.731931
4.941500	1.732250
4.942000	1.732887
4.942500	1.732568
4.943000	1.732568
4.943500	1.732250
4.944000	1.731294
4.944500	1.732250
4.945000	1.732568
4.945500	1.734161
4.946000	1.734161
4.946500	1.733205
4.947000	1.731931
4.947500	1.730976
4.948000	1.730976
4.948500	1.730976
4.949000	1.731931
4.949500	1.732250
4.950000	1.732568
4.950500	1.731613
4.951000	1.730020
4.951500	1.729702
4.952000	1.729064
4.952500	1.731931
4.953000	1.732250
4.953500	1.731931
4.954000	1.732568
4.954500	1.732568
4.955000	1.731931
4.955500	1.731294
4.956000	1.732568
4.956500	1.733843
4.957000	1.734480
4.957500	1.734161
4.958000	1.732250
4.958500	1.731613
4.959000	1.731613
4.959500	1.730657
4.960000	1.730976
4.960500	1.731931
4.961000	1.732887
4.961500	1.732250
4.962000	1.730657
4.962500	1.729702
4.963000	1.729702
4.963500	1.730339
4.964000	1.732250
4.964500	1.732568
4.965000	1.733205
4.965500	1.732887
4.966000	1.731613
4.966500	1.731613
4.967000	1.732568
4.967500	1.732887
4.968000	1.733524
4.968500	1.735117
4.969000	1.733524
4.969500	1.731931
4.970000	1.731294
4.970500	1.730976
4.971000	1.730657
4.971500	1.731931
4.972000	1.732568
4.972500	1.733205
4.973000	1.732568
4.973500	1.730976
4.974000	1.729702
4.974500	1.730339
4.975000	1.731613
4.975500	1.732250
4.976000	1.732887
4.976500	1.733205
4.977000	1.733524
4.977500	1.732887
4.978000	1.731931
4.978500	1.731931
4.979000	1.733205
4.979500	1.735117
4.980000	1.735435
4.980500	1.733843
4.981000	1.733205
4.981500	1.732250
4.982000	1.731294
4.982500	1.731613
4.983000	1.731613
4.983500	1.732568
4.984000	1.733205
4.984500	1.731931
4.985000	1.730339
4.985500	1.730020
4.986000	1.730339
4.986500	1.731613
4.987000	1.732887
4.987500	1.732568
4.988000	1.733524
4.988500	1.731613
4.989000	1.731931
4.989500	1.731294
4.990000	1.732568
4.990500	1.733843
4.991000	1.734798
4.991500	1.734480
4.992000	1.732568
4.992500	1.731931
4.993000	1.731294
4.993500	1.730657
4.994000	1.731613
4.994500	1.731931
4.995000	1.733205
4.995500	1.731294
4.996000	1.730976
4.996500	1.728746
4.997000	1.729702
4.997500	1.730976
4.998000	1.731294
4.998500	1.732568
4.999000	1.732568
4.999500	1.731931

